wavelength,value
3998.26466,0.01312
3997.30030,0.01318
3996.33593,0.01316
3995.37156,0.01311
3994.40719,0.01310
3993.44283,0.01310
3992.47846,0.01288
3991.51409,0.01250
3990.54973,0.01236
3989.58536,0.01258
3988.62099,0.01298
3987.65663,0.01335
3986.69226,0.01351
3985.72789,0.01346
3984.76353,0.01327
3983.79916,0.01293
3982.83479,0.01270
3981.87043,0.01278
3980.90606,0.01299
3979.94169,0.01309
3978.97733,0.01296
3978.01296,0.01270
3977.04859,0.01269
3976.08423,0.01307
3975.11986,0.01355
3974.15549,0.01382
3973.19113,0.01376
3972.22676,0.01344
3971.26239,0.01311
3970.29803,0.01294
3969.33366,0.01300
3968.36929,0.01321
3967.40493,0.01338
3966.44056,0.01346
3965.47619,0.01347
3964.51182,0.01342
3963.54746,0.01333
3962.58309,0.01325
3961.61872,0.01324
3960.65436,0.01336
3959.68999,0.01347
3958.72562,0.01330
3957.76126,0.01296
3956.79689,0.01291
3955.83252,0.01319
3954.86816,0.01340
3953.90379,0.01335
3952.93942,0.01328
3951.97506,0.01335
3951.01069,0.01343
3950.04632,0.01337
3949.08196,0.01326
3948.11759,0.01329
3947.15322,0.01349
3946.18886,0.01371
3945.22449,0.01374
3944.26012,0.01357
3943.29576,0.01338
3942.33139,0.01333
3941.36702,0.01342
3940.40266,0.01349
3939.43829,0.01345
3938.47392,0.01335
3937.50955,0.01332
3936.54519,0.01337
3935.58082,0.01336
3934.61645,0.01319
3933.65209,0.01298
3932.68772,0.01293
3931.72335,0.01306
3930.75899,0.01322
3929.79462,0.01326
3928.83025,0.01316
3927.86589,0.01304
3926.90152,0.01300
3925.93715,0.01302
3924.97279,0.01301
3924.00842,0.01304
3923.04405,0.01322
3922.07969,0.01350
3921.11532,0.01371
3920.15095,0.01374
3919.18659,0.01364
3918.22222,0.01349
3917.25785,0.01331
3916.29349,0.01312
3915.32912,0.01306
3914.36475,0.01320
3913.40039,0.01344
3912.43602,0.01361
3911.47165,0.01362
3910.50729,0.01354
3909.54292,0.01341
3908.57855,0.01321
3907.61418,0.01295
3906.64982,0.01279
3905.68545,0.01286
3904.72108,0.01309
3903.75672,0.01328
3902.79235,0.01334
3901.82798,0.01335
3900.86362,0.01337
3899.89925,0.01340
3898.93488,0.01341
3897.97052,0.01342
3897.00615,0.01351
3896.04178,0.01367
3895.07742,0.01370
3894.11305,0.01351
3893.14868,0.01323
3892.18432,0.01311
3891.21995,0.01320
3890.25558,0.01339
3889.29122,0.01350
3888.32685,0.01348
3887.36248,0.01334
3886.39812,0.01318
3885.43375,0.01309
3884.46938,0.01309
3883.50502,0.01311
3882.54065,0.01303
3881.57628,0.01292
3880.61191,0.01290
3879.64755,0.01305
3878.68318,0.01332
3877.71881,0.01354
3876.75445,0.01362
3875.79008,0.01364
3874.82571,0.01370
3873.86135,0.01382
3872.89698,0.01396
3871.93261,0.01406
3870.96825,0.01409
3870.00388,0.01411
3869.03951,0.01422
3868.07515,0.01440
3867.11078,0.01449
3866.14641,0.01432
3865.18205,0.01397
3864.21768,0.01366
3863.25331,0.01353
3862.28895,0.01360
3861.32458,0.01382
3860.36021,0.01412
3859.39585,0.01439
3858.43148,0.01454
3857.46711,0.01457
3856.50275,0.01459
3855.53838,0.01458
3854.57401,0.01438
3853.60965,0.01398
3852.64528,0.01363
3851.68091,0.01361
3850.71654,0.01389
3849.75218,0.01415
3848.78781,0.01418
3847.82344,0.01405
3846.85908,0.01401
3845.89471,0.01415
3844.93034,0.01437
3843.96598,0.01449
3843.00161,0.01445
3842.03724,0.01432
3841.07288,0.01426
3840.10851,0.01434
3839.14414,0.01453
3838.17978,0.01477
3837.21541,0.01502
3836.25104,0.01525
3835.28668,0.01535
3834.32231,0.01522
3833.35794,0.01492
3832.39358,0.01459
3831.42921,0.01437
3830.46484,0.01434
3829.50048,0.01448
3828.53611,0.01467
3827.57174,0.01480
3826.60738,0.01479
3825.64301,0.01467
3824.67864,0.01448
3823.71428,0.01431
3822.74991,0.01422
3821.78554,0.01428
3820.82117,0.01452
3819.85681,0.01485
3818.89244,0.01514
3817.92807,0.01528
3816.96371,0.01523
3815.99934,0.01505
3815.03497,0.01493
3814.07061,0.01498
3813.10624,0.01512
3812.14187,0.01527
3811.17751,0.01541
3810.21314,0.01547
3809.24877,0.01540
3808.28441,0.01515
3807.32004,0.01481
3806.35567,0.01461
3805.39131,0.01462
3804.42694,0.01475
3803.46257,0.01488
3802.49821,0.01494
3801.53384,0.01495
3800.56947,0.01494
3799.60511,0.01494
3798.64074,0.01489
3797.67637,0.01485
3796.71201,0.01492
3795.74764,0.01504
3794.78327,0.01510
3793.81890,0.01506
3792.85454,0.01503
3791.89017,0.01510
3790.92580,0.01522
3789.96144,0.01530
3788.99707,0.01533
3788.03270,0.01539
3787.06834,0.01551
3786.10397,0.01567
3785.13960,0.01583
3784.17524,0.01598
3783.21087,0.01611
3782.24650,0.01621
3781.28214,0.01620
3780.31777,0.01607
3779.35340,0.01593
3778.38904,0.01589
3777.42467,0.01595
3776.46030,0.01605
3775.49594,0.01614
3774.53157,0.01625
3773.56720,0.01639
3772.60284,0.01653
3771.63847,0.01665
3770.67410,0.01670
3769.70974,0.01667
3768.74537,0.01656
3767.78100,0.01647
3766.81664,0.01648
3765.85227,0.01657
3764.88790,0.01664
3763.92353,0.01663
3762.95917,0.01657
3761.99480,0.01659
3761.03043,0.01674
3760.06607,0.01695
3759.10170,0.01713
3758.13733,0.01727
3757.17297,0.01742
3756.20860,0.01755
3755.24423,0.01753
3754.27987,0.01737
3753.31550,0.01727
3752.35113,0.01741
3751.38677,0.01770
3750.42240,0.01790
3749.45803,0.01788
3748.49367,0.01779
3747.52930,0.01780
3746.56493,0.01795
3745.60057,0.01818
3744.63620,0.01844
3743.67183,0.01873
3742.70747,0.01900
3741.74310,0.01917
3740.77873,0.01921
3739.81437,0.01915
3738.85000,0.01914
3737.88563,0.01928
3736.92127,0.01947
3735.95690,0.01956
3734.99253,0.01955
3734.02816,0.01957
3733.06380,0.01968
3732.09943,0.01989
3731.13506,0.02010
3730.17070,0.02024
3729.20633,0.02027
3728.24196,0.02018
3727.27760,0.02006
3726.31323,0.02009
3725.34886,0.02035
3724.38450,0.02074
3723.42013,0.02112
3722.45576,0.02140
3721.49140,0.02154
3720.52703,0.02157
3719.56266,0.02159
3718.59830,0.02165
3717.63393,0.02170
3716.66956,0.02177
3715.70520,0.02197
3714.74083,0.02230
3713.77646,0.02260
3712.81210,0.02277
3711.84773,0.02285
3710.88336,0.02296
3709.91900,0.02326
3708.95463,0.02379
3707.99026,0.02442
3707.02589,0.02489
3706.06153,0.02513
3705.09716,0.02517
3704.13279,0.02518
3703.16843,0.02528
3702.20406,0.02556
3701.23969,0.02596
3700.27533,0.02637
3699.31096,0.02670
3698.34659,0.02692
3697.38223,0.02707
3696.41786,0.02727
3695.45349,0.02771
3694.48913,0.02833
3693.52476,0.02906
3692.56039,0.02961
3691.59603,0.02996
3690.63166,0.03017
3689.66729,0.03036
3688.70293,0.03047
3687.73856,0.03070
3686.77419,0.03111
3685.80983,0.03171
3684.84546,0.03230
3683.88109,0.03287
3682.91673,0.03337
3681.95236,0.03384
3680.98799,0.03426
3680.02363,0.03469
3679.05926,0.03518
3678.09489,0.03576
3677.13052,0.03640
3676.16616,0.03715
3675.20179,0.03805
3674.23742,0.03897
3673.27306,0.03974
3672.30869,0.04024
3671.34432,0.04062
3670.37996,0.04106
3669.41559,0.04169
3668.45122,0.04237
3667.48686,0.04298
3666.52249,0.04360
3665.55812,0.04434
3664.59376,0.04520
3663.62939,0.04613
3662.66502,0.04711
3661.70066,0.04812
3660.73629,0.04906
3659.77192,0.04982
3658.80756,0.05042
3657.84319,0.05093
3656.87882,0.05143
3655.91446,0.05200
3654.95009,0.05268
3653.98572,0.05335
3653.02136,0.05388
3652.05699,0.05433
3651.09262,0.05494
3650.12826,0.05580
3649.16389,0.05672
3648.19952,0.05753
3647.23515,0.05824
3646.27079,0.05893
3645.30642,0.05961
3644.34205,0.06032
3643.37769,0.06116
3642.41332,0.06211
3641.44895,0.06307
3640.48459,0.06395
3639.52022,0.06472
3638.55585,0.06538
3637.59149,0.06597
3636.62712,0.06652
3635.66275,0.06711
3634.69839,0.06779
3633.73402,0.06852
3632.76965,0.06917
3631.80529,0.06965
3630.84092,0.07006
3629.87655,0.07056
3628.91219,0.07117
3627.94782,0.07189
3626.98345,0.07266
3626.01909,0.07346
3625.05472,0.07426
3624.09035,0.07495
3623.12599,0.07553
3622.16162,0.07605
3621.19725,0.07654
3620.23288,0.07705
3619.26852,0.07762
3618.30415,0.07827
3617.33978,0.07905
3616.37542,0.07990
3615.41105,0.08067
3614.44668,0.08126
3613.48232,0.08163
3612.51795,0.08186
3611.55358,0.08219
3610.58922,0.08279
3609.62485,0.08359
3608.66048,0.08443
3607.69612,0.08525
3606.73175,0.08600
3605.76738,0.08668
3604.80302,0.08726
3603.83865,0.08774
3602.87428,0.08815
3601.90992,0.08856
3600.94555,0.08900
3599.98118,0.08954
3599.01682,0.09025
3598.05245,0.09105
3597.08808,0.09184
3596.12372,0.09255
3595.15935,0.09324
3594.19498,0.09388
3593.23062,0.09447
3592.26625,0.09493
3591.30188,0.09524
3590.33751,0.09557
3589.37315,0.09625
3588.40878,0.09731
3587.44441,0.09837
3586.48005,0.09913
3585.51568,0.09960
3584.55131,0.09996
3583.58695,0.10036
3582.62258,0.10089
3581.65821,0.10157
3580.69385,0.10229
3579.72948,0.10287
3578.76511,0.10334
3577.80075,0.10384
3576.83638,0.10451
3575.87201,0.10537
3574.90765,0.10629
3573.94328,0.10709
3572.97891,0.10766
3572.01455,0.10803
3571.05018,0.10834
3570.08581,0.10888
3569.12145,0.10981
3568.15708,0.11094
3567.19271,0.11179
3566.22835,0.11234
3565.26398,0.11290
3564.29961,0.11357
3563.33524,0.11425
3562.37088,0.11495
3561.40651,0.11572
3560.44214,0.11652
3559.47778,0.11738
3558.51341,0.11836
3557.54904,0.11932
3556.58468,0.12007
3555.62031,0.12056
3554.65594,0.12100
3553.69158,0.12168
3552.72721,0.12267
3551.76284,0.12359
3550.79848,0.12414
3549.83411,0.12448
3548.86974,0.12493
3547.90538,0.12554
3546.94101,0.12617
3545.97664,0.12673
3545.01228,0.12733
3544.04791,0.12817
3543.08354,0.12925
3542.11918,0.13024
3541.15481,0.13097
3540.19044,0.13157
3539.22608,0.13224
3538.26171,0.13305
3537.29734,0.13382
3536.33298,0.13440
3535.36861,0.13487
3534.40424,0.13548
3533.43987,0.13635
3532.47551,0.13734
3531.51114,0.13813
3530.54677,0.13860
3529.58241,0.13903
3528.61804,0.13978
3527.65367,0.14074
3526.68931,0.14154
3525.72494,0.14205
3524.76057,0.14250
3523.79621,0.14312
3522.83184,0.14396
3521.86747,0.14494
3520.90311,0.14590
3519.93874,0.14663
3518.97437,0.14707
3518.01001,0.14746
3517.04564,0.14796
3516.08127,0.14863
3515.11691,0.14949
3514.15254,0.15046
3513.18817,0.15142
3512.22381,0.15221
3511.25944,0.15265
3510.29507,0.15288
3509.33071,0.15329
3508.36634,0.15407
3507.40197,0.15502
3506.43761,0.15584
3505.47324,0.15648
3504.50887,0.15711
3503.54450,0.15781
3502.58014,0.15841
3501.61577,0.15891
3500.65140,0.15959
3499.68704,0.16049
3498.72267,0.16140
3497.75830,0.16222
3496.79394,0.16299
3495.82957,0.16377
3494.86520,0.16461
3493.90084,0.16542
3492.93647,0.16600
3491.97210,0.16636
3491.00774,0.16681
3490.04337,0.16751
3489.07900,0.16827
3488.11464,0.16890
3487.15027,0.16958
3486.18590,0.17055
3485.22154,0.17162
3484.25717,0.17243
3483.29280,0.17300
3482.32844,0.17349
3481.36407,0.17390
3480.39970,0.17437
3479.43534,0.17519
3478.47097,0.17624
3477.50660,0.17714
3476.54223,0.17768
3475.57787,0.17795
3474.61350,0.17819
3473.64913,0.17854
3472.68477,0.17909
3471.72040,0.17989
3470.75603,0.18085
3469.79167,0.18169
3468.82730,0.18232
3467.86293,0.18290
3466.89857,0.18350
3465.93420,0.18411
3464.96983,0.18467
3464.00547,0.18508
3463.04110,0.18537
3462.07673,0.18576
3461.11237,0.18637
3460.14800,0.18707
3459.18363,0.18774
3458.21927,0.18832
3457.25490,0.18882
3456.29053,0.18929
3455.32617,0.18979
3454.36180,0.19032
3453.39743,0.19082
3452.43307,0.19130
3451.46870,0.19186
3450.50433,0.19248
3449.53997,0.19298
3448.57560,0.19332
3447.61123,0.19371
3446.64686,0.19436
3445.68250,0.19515
3444.71813,0.19572
3443.75376,0.19604
3442.78940,0.19644
3441.82503,0.19708
3440.86066,0.19773
3439.89630,0.19825
3438.93193,0.19872
3437.96756,0.19925
3437.00320,0.19971
3436.03883,0.20012
3435.07446,0.20070
3434.11010,0.20143
3433.14573,0.20206
3432.18136,0.20259
3431.21700,0.20316
3430.25263,0.20367
3429.28826,0.20390
3428.32390,0.20394
3427.35953,0.20402
3426.39516,0.20430
3425.43080,0.20484
3424.46643,0.20558
3423.50206,0.20635
3422.53770,0.20698
3421.57333,0.20747
3420.60896,0.20779
3419.64460,0.20803
3418.68023,0.20831
3417.71586,0.20854
3416.75149,0.20877
3415.78713,0.20924
3414.82276,0.20980
3413.85839,0.21011
3412.89403,0.21022
3411.92966,0.21038
3410.96529,0.21066
3410.00093,0.21102
3409.03656,0.21149
3408.07219,0.21192
3407.10783,0.21223
3406.14346,0.21252
3405.17909,0.21270
3404.21473,0.21280
3403.25036,0.21304
3402.28599,0.21335
3401.32163,0.21355
3400.35726,0.21369
3399.39289,0.21397
3398.42853,0.21430
3397.46416,0.21455
3396.49979,0.21469
3395.53543,0.21481
3394.57106,0.21494
3393.60669,0.21495
3392.64233,0.21482
3391.67796,0.21483
3390.71359,0.21500
3389.74922,0.21519
3388.78486,0.21538
3387.82049,0.21551
3386.85612,0.21552
3385.89176,0.21548
3384.92739,0.21545
3383.96302,0.21532
3382.99866,0.21516
3382.03429,0.21524
3381.06992,0.21562
3380.10556,0.21590
3379.14119,0.21580
3378.17682,0.21558
3377.21246,0.21562
3376.24809,0.21577
3375.28372,0.21577
3374.31936,0.21569
3373.35499,0.21568
3372.39062,0.21566
3371.42626,0.21554
3370.46189,0.21553
3369.49752,0.21567
3368.53316,0.21579
3367.56879,0.21571
3366.60442,0.21540
3365.64006,0.21500
3364.67569,0.21469
3363.71132,0.21442
3362.74696,0.21419
3361.78259,0.21407
3360.81822,0.21398
3359.85385,0.21376
3358.88949,0.21348
3357.92512,0.21334
3356.96075,0.21339
3355.99639,0.21341
3355.03202,0.21327
3354.06765,0.21306
3353.10329,0.21289
3352.13892,0.21263
3351.17455,0.21223
3350.21019,0.21182
3349.24582,0.21156
3348.28145,0.21144
3347.31709,0.21135
3346.35272,0.21119
3345.38835,0.21092
3344.42399,0.21062
3343.45962,0.21030
3342.49525,0.20995
3341.53089,0.20971
3340.56652,0.20976
3339.60215,0.20987
3338.63779,0.20970
3337.67342,0.20929
3336.70905,0.20879
3335.74469,0.20838
3334.78032,0.20813
3333.81595,0.20797
3332.85159,0.20783
3331.88722,0.20765
3330.92285,0.20732
3329.95848,0.20686
3328.99412,0.20645
3328.02975,0.20629
3327.06538,0.20629
3326.10102,0.20612
3325.13665,0.20572
3324.17228,0.20537
3323.20792,0.20515
3322.24355,0.20489
3321.27918,0.20453
3320.31482,0.20416
3319.35045,0.20392
3318.38608,0.20387
3317.42172,0.20381
3316.45735,0.20362
3315.49298,0.20338
3314.52862,0.20308
3313.56425,0.20269
3312.59988,0.20226
3311.63552,0.20178
3310.67115,0.20128
3309.70678,0.20090
3308.74242,0.20075
3307.77805,0.20072
3306.81368,0.20064
3305.84932,0.20049
3304.88495,0.20034
3303.92058,0.20010
3302.95621,0.19975
3301.99185,0.19942
3301.02748,0.19906
3300.06311,0.19861
3299.09875,0.19828
3298.13438,0.19825
3297.17001,0.19827
3296.20565,0.19810
3295.24128,0.19777
3294.27691,0.19741
3293.31255,0.19708
3292.34818,0.19682
3291.38381,0.19660
3290.41945,0.19643
3289.45508,0.19625
3288.49071,0.19601
3287.52635,0.19566
3286.56198,0.19534
3285.59761,0.19513
3284.63325,0.19495
3283.66888,0.19470
3282.70451,0.19438
3281.74015,0.19405
3280.77578,0.19382
3279.81141,0.19373
3278.84705,0.19366
3277.88268,0.19341
3276.91831,0.19301
3275.95395,0.19258
3274.98958,0.19220
3274.02521,0.19185
3273.06084,0.19151
3272.09648,0.19116
3271.13211,0.19080
3270.16774,0.19046
3269.20338,0.19017
3268.23901,0.18996
3267.27464,0.18979
3266.31028,0.18953
3265.34591,0.18914
3264.38154,0.18879
3263.41718,0.18854
3262.45281,0.18826
3261.48844,0.18794
3260.52408,0.18758
3259.55971,0.18717
3258.59534,0.18678
3257.63098,0.18638
3256.66661,0.18602
3255.70224,0.18570
3254.73788,0.18530
3253.77351,0.18481
3252.80914,0.18444
3251.84478,0.18420
3250.88041,0.18400
3249.91604,0.18375
3248.95168,0.18342
3247.98731,0.18303
3247.02294,0.18265
3246.05858,0.18222
3245.09421,0.18176
3244.12984,0.18136
3243.16547,0.18092
3242.20111,0.18036
3241.23674,0.17976
3240.27237,0.17922
3239.30801,0.17884
3238.34364,0.17861
3237.37927,0.17835
3236.41491,0.17787
3235.45054,0.17722
3234.48617,0.17661
3233.52181,0.17615
3232.55744,0.17576
3231.59307,0.17534
3230.62871,0.17484
3229.66434,0.17422
3228.69997,0.17347
3227.73561,0.17266
3226.77124,0.17208
3225.80687,0.17181
3224.84251,0.17156
3223.87814,0.17113
3222.91377,0.17059
3221.94941,0.16994
3220.98504,0.16915
3220.02067,0.16830
3219.05631,0.16749
3218.09194,0.16687
3217.12757,0.16642
3216.16320,0.16587
3215.19884,0.16526
3214.23447,0.16479
3213.27010,0.16430
3212.30574,0.16359
3211.34137,0.16268
3210.37700,0.16176
3209.41264,0.16105
3208.44827,0.16057
3207.48390,0.16016
3206.51954,0.15963
3205.55517,0.15887
3204.59080,0.15805
3203.62644,0.15737
3202.66207,0.15671
3201.69770,0.15587
3200.73334,0.15503
3199.76897,0.15435
3198.80460,0.15362
3197.84024,0.15267
3196.87587,0.15159
3195.91150,0.15062
3194.94714,0.14982
3193.98277,0.14908
3193.01840,0.14842
3192.05404,0.14795
3191.08967,0.14747
3190.12530,0.14668
3189.16094,0.14566
3188.19657,0.14478
3187.23220,0.14416
3186.26783,0.14355
3185.30347,0.14264
3184.33910,0.14146
3183.37473,0.14034
3182.41037,0.13956
3181.44600,0.13908
3180.48163,0.13860
3179.51727,0.13790
3178.55290,0.13696
3177.58853,0.13598
3176.62417,0.13507
3175.65980,0.13425
3174.69543,0.13352
3173.73107,0.13288
3172.76670,0.13218
3171.80233,0.13132
3170.83797,0.13041
3169.87360,0.12956
3168.90923,0.12871
3167.94487,0.12779
3166.98050,0.12690
3166.01613,0.12602
3165.05177,0.12507
3164.08740,0.12414
3163.12303,0.12335
3162.15867,0.12267
3161.19430,0.12197
3160.22993,0.12119
3159.26556,0.12045
3158.30120,0.11977
3157.33683,0.11896
3156.37246,0.11800
3155.40810,0.11700
3154.44373,0.11610
3153.47936,0.11530
3152.51500,0.11447
3151.55063,0.11365
3150.58626,0.11294
3149.62190,0.11232
3148.65753,0.11169
3147.69316,0.11098
3146.72880,0.11013
3145.76443,0.10918
3144.80006,0.10824
3143.83570,0.10737
3142.87133,0.10664
3141.90696,0.10592
3140.94260,0.10507
3139.97823,0.10413
3139.01386,0.10321
3138.04950,0.10242
3137.08513,0.10178
3136.12076,0.10117
3135.15640,0.10046
3134.19203,0.09970
3133.22766,0.09900
3132.26330,0.09827
3131.29893,0.09739
3130.33456,0.09645
3129.37019,0.09561
3128.40583,0.09491
3127.44146,0.09428
3126.47709,0.09358
3125.51273,0.09276
3124.54836,0.09197
3123.58399,0.09129
3122.61963,0.09071
3121.65526,0.09014
3120.69089,0.08948
3119.72653,0.08877
3118.76216,0.08809
3117.79779,0.08745
3116.83343,0.08679
3115.86906,0.08607
3114.90469,0.08535
3113.94033,0.08463
3112.97596,0.08390
3112.01159,0.08320
3111.04723,0.08253
3110.08286,0.08187
3109.11849,0.08123
3108.15413,0.08063
3107.18976,0.08006
3106.22539,0.07953
3105.26103,0.07898
3104.29666,0.07826
3103.33229,0.07737
3102.36793,0.07658
3101.40356,0.07601
3100.43919,0.07552
3099.47482,0.07507
3098.51046,0.07464
3097.54609,0.07405
3096.58172,0.07328
3095.61736,0.07256
3094.65299,0.07199
3093.68862,0.07146
3092.72426,0.07094
3091.75989,0.07039
3090.79552,0.06978
3089.83116,0.06911
3088.86679,0.06849
3087.90242,0.06796
3086.93806,0.06743
3085.97369,0.06686
3085.00932,0.06632
3084.04496,0.06584
3083.08059,0.06538
3082.11622,0.06496
3081.15186,0.06461
3080.18749,0.06434
3079.22312,0.06401
3078.25876,0.06353
3077.29439,0.06295
3076.33002,0.06238
3075.36566,0.06184
3074.40129,0.06137
3073.43692,0.06096
3072.47255,0.06066
3071.50819,0.06044
3070.54382,0.06005
3069.57945,0.05941
3068.61509,0.05877
3067.65072,0.05829
3066.68635,0.05784
3065.72199,0.05735
3064.75762,0.05686
3063.79325,0.05645
3062.82889,0.05605
3061.86452,0.05559
3060.90015,0.05515
3059.93579,0.05479
3058.97142,0.05440
3058.00705,0.05400
3057.04269,0.05362
3056.07832,0.05326
3055.11395,0.05295
3054.14959,0.05266
3053.18522,0.05226
3052.22085,0.05182
3051.25649,0.05143
3050.29212,0.05106
3049.32775,0.05065
3048.36339,0.05024
3047.39902,0.04991
3046.43465,0.04966
3045.47029,0.04935
3044.50592,0.04896
3043.54155,0.04864
3042.57718,0.04841
3041.61282,0.04822
3040.64845,0.04797
3039.68408,0.04771
3038.71972,0.04750
3037.75535,0.04733
3036.79098,0.04718
3035.82662,0.04703
3034.86225,0.04696
3033.89788,0.04701
3032.93352,0.04701
3031.96915,0.04684
3031.00478,0.04664
3030.04042,0.04654
3029.07605,0.04652
3028.11168,0.04664
3027.14732,0.04699
3026.18295,0.04745
3025.21858,0.04796
3024.25422,0.04854
3023.28985,0.04930
3022.32548,0.05019
3021.36112,0.05112
3020.39675,0.05220
3019.43238,0.05352
3018.46802,0.05501
3017.50365,0.05658
3016.53928,0.05832
3015.57492,0.06026
3014.61055,0.06229
3013.64618,0.06423
3012.68181,0.06595
3011.71745,0.06741
3010.75308,0.06864
3009.78871,0.06953
3008.82435,0.06993
3007.85998,0.06990
3006.89561,0.06962
3005.93125,0.06909
3004.96688,0.06814
3004.00251,0.06676
3003.03815,0.06521
3002.07378,0.06367
3001.10941,0.06201
3000.14505,0.06015
2999.18068,0.05828
2998.21631,0.05663
2997.25195,0.05514
2996.28758,0.05388
2995.32321,0.05284
2994.35885,0.05197
2993.39448,0.05133
2992.43011,0.05096
2991.46575,0.05072
2990.50138,0.05055
2989.53701,0.05050
2988.57265,0.05058
2987.60828,0.05074
2986.64391,0.05100
2985.67954,0.05148
2984.71518,0.05226
2983.75081,0.05322
2982.78644,0.05417
2981.82208,0.05527
2980.85771,0.05664
2979.89334,0.05810
2978.92898,0.05969
2977.96461,0.06160
2977.00024,0.06376
2976.03588,0.06610
2975.07151,0.06868
2974.10714,0.07149
2973.14278,0.07459
2972.17841,0.07811
2971.21404,0.08205
2970.24968,0.08649
2969.28531,0.09146
2968.32094,0.09672
2967.35658,0.10208
2966.39221,0.10779
2965.42784,0.11398
2964.46348,0.12032
2963.49911,0.12641
2962.53474,0.13228
2961.57038,0.13809
2960.60601,0.14364
2959.64164,0.14860
2958.67728,0.15306
2957.71291,0.15714
2956.74854,0.16056
2955.78417,0.16294
2954.81981,0.16418
2953.85544,0.16449
2952.89107,0.16401
2951.92671,0.16286
2950.96234,0.16161
2949.99797,0.16095
2949.03361,0.16126
2948.06924,0.16270
2947.10487,0.16530
2946.14051,0.16903
2945.17614,0.17383
2944.21177,0.17984
2943.24741,0.18720
2942.28304,0.19586
2941.31867,0.20573
2940.35431,0.21671
2939.38994,0.22868
2938.42557,0.24166
2937.46121,0.25565
2936.49684,0.27054
2935.53247,0.28626
2934.56811,0.30274
2933.60374,0.31981
2932.63937,0.33733
2931.67501,0.35511
2930.71064,0.37276
2929.74627,0.38997
2928.78191,0.40661
2927.81754,0.42258
2926.85317,0.43759
2925.88880,0.45114
2924.92444,0.46261
2923.96007,0.47156
2922.99570,0.47772
2922.03134,0.48063
2921.06697,0.47992
2920.10260,0.47585
2919.13824,0.46878
2918.17387,0.45875
2917.20950,0.44578
2916.24514,0.43001
2915.28077,0.41155
2914.31640,0.39069
2913.35204,0.36838
2912.38767,0.34604
2911.42330,0.32501
2910.45894,0.30600
2909.49457,0.28903
2908.53020,0.27393
2907.56584,0.26059
2906.60147,0.24886
2905.63710,0.23839
2904.67274,0.22878
2903.70837,0.21985
2902.74400,0.21152
2901.77964,0.20370
2900.81527,0.19644
2899.85090,0.18972
2898.88653,0.18331
2897.92217,0.17709
2896.95780,0.17112
2895.99343,0.16538
2895.02907,0.15974
2894.06470,0.15413
2893.10033,0.14863
2892.13597,0.14327
2891.17160,0.13809
2890.20723,0.13321
2889.24287,0.12859
2888.27850,0.12418
2887.31413,0.11999
2886.34977,0.11614
2885.38540,0.11275
2884.42103,0.10981
2883.45667,0.10723
2882.49230,0.10511
2881.52793,0.10359
2880.56357,0.10273
2879.59920,0.10268
2878.63483,0.10361
2877.67047,0.10538
2876.70610,0.10786
2875.74173,0.11111
2874.77737,0.11505
2873.81300,0.11909
2872.84863,0.12251
2871.88427,0.12492
2870.91990,0.12634
2869.95553,0.12725
2868.99116,0.12830
2868.02680,0.13015
2867.06243,0.13337
2866.09806,0.13825
2865.13370,0.14490
2864.16933,0.15344
2863.20496,0.16396
2862.24060,0.17645
2861.27623,0.19083
2860.31186,0.20681
2859.34750,0.22392
2858.38313,0.24164
2857.41876,0.25951
2856.45440,0.27692
2855.49003,0.29291
2854.52566,0.30621
2853.56130,0.31577
2852.59693,0.32076
2851.63256,0.32038
2850.66820,0.31387
2849.70383,0.30075
2848.73946,0.28117
2847.77510,0.25671
2846.81073,0.23002
2845.84636,0.20353
2844.88200,0.17884
2843.91763,0.15693
2842.95326,0.13826
2841.98889,0.12269
2841.02453,0.10978
2840.06016,0.09911
2839.09579,0.09029
2838.13143,0.08297
2837.16706,0.07684
2836.20269,0.07172
2835.23833,0.06741
2834.27396,0.06362
2833.30959,0.06016
2832.34523,0.05695
2831.38086,0.05397
2830.41649,0.05131
2829.45213,0.04889
2828.48776,0.04665
2827.52339,0.04466
2826.55903,0.04280
2825.59466,0.04099
2824.63029,0.03935
2823.66593,0.03798
2822.70156,0.03672
2821.73719,0.03539
2820.77283,0.03411
2819.80846,0.03305
2818.84409,0.03209
2817.87973,0.03105
2816.91536,0.03005
2815.95099,0.02921
2814.98663,0.02851
2814.02226,0.02781
2813.05789,0.02708
2812.09352,0.02641
2811.12916,0.02590
2810.16479,0.02542
2809.20042,0.02479
2808.23606,0.02412
2807.27169,0.02362
2806.30732,0.02322
2805.34296,0.02272
2804.37859,0.02213
2803.41422,0.02158
2802.44986,0.02112
2801.48549,0.02077
2800.52112,0.02048
2799.55676,0.02016
2798.59239,0.01990
2797.62802,0.01969
2796.66366,0.01946
2795.69929,0.01917
2794.73492,0.01884
2793.77056,0.01848
2792.80619,0.01816
2791.84182,0.01788
2790.87746,0.01761
2789.91309,0.01737
2788.94872,0.01719
2787.98436,0.01700
2787.01999,0.01673
2786.05562,0.01641
2785.09126,0.01613
2784.12689,0.01596
2783.16252,0.01585
2782.19815,0.01569
2781.23379,0.01544
2780.26942,0.01513
2779.30505,0.01484
2778.34069,0.01461
2777.37632,0.01444
2776.41195,0.01431
2775.44759,0.01421
2774.48322,0.01404
2773.51885,0.01379
2772.55449,0.01360
2771.59012,0.01351
2770.62575,0.01344
2769.66139,0.01336
2768.69702,0.01329
2767.73265,0.01321
2766.76829,0.01309
2765.80392,0.01293
2764.83955,0.01280
2763.87519,0.01277
2762.91082,0.01274
2761.94645,0.01264
2760.98209,0.01253
2760.01772,0.01245
2759.05335,0.01239
2758.08899,0.01236
2757.12462,0.01234
2756.16025,0.01228
2755.19588,0.01219
2754.23152,0.01211
2753.26715,0.01208
2752.30278,0.01204
2751.33842,0.01189
2750.37405,0.01173
2749.40968,0.01170
2748.44532,0.01178
2747.48095,0.01185
2746.51658,0.01188
2745.55222,0.01192
2744.58785,0.01196
2743.62348,0.01198
2742.65912,0.01200
2741.69475,0.01194
2740.73038,0.01178
2739.76602,0.01164
2738.80165,0.01165
2737.83728,0.01176
2736.87292,0.01184
2735.90855,0.01183
2734.94418,0.01176
2733.97982,0.01167
2733.01545,0.01155
2732.05108,0.01148
2731.08672,0.01148
2730.12235,0.01151
2729.15798,0.01154
2728.19362,0.01150
2727.22925,0.01139
2726.26488,0.01135
2725.30051,0.01140
2724.33615,0.01138
2723.37178,0.01123
2722.40741,0.01105
2721.44305,0.01097
2720.47868,0.01097
2719.51431,0.01091
2718.54995,0.01072
2717.58558,0.01058
2716.62121,0.01064
2715.65685,0.01075
2714.69248,0.01077
2713.72811,0.01069
2712.76375,0.01056
2711.79938,0.01044
2710.83501,0.01039
2709.87065,0.01037
2708.90628,0.01029
2707.94191,0.01021
2706.97755,0.01019
2706.01318,0.01024
2705.04881,0.01023
2704.08445,0.01015
2703.12008,0.01015
2702.15571,0.01023
2701.19135,0.01025
2700.22698,0.01016
2699.26261,0.01013
2698.29825,0.01024
2697.33388,0.01037
2696.36951,0.01040
2695.40514,0.01032
2694.44078,0.01024
2693.47641,0.01024
2692.51204,0.01037
2691.54768,0.01050
2690.58331,0.01051
2689.61894,0.01048
2688.65458,0.01051
2687.69021,0.01056
2686.72584,0.01057
2685.76148,0.01050
2684.79711,0.01046
2683.83274,0.01051
2682.86838,0.01057
2681.90401,0.01060
2680.93964,0.01067
2679.97528,0.01073
2679.01091,0.01072
2678.04654,0.01067
2677.08218,0.01060
2676.11781,0.01053
2675.15344,0.01059
2674.18908,0.01075
2673.22471,0.01079
2672.26034,0.01073
2671.29598,0.01070
2670.33161,0.01070
2669.36724,0.01070
2668.40287,0.01068
2667.43851,0.01058
2666.47414,0.01036
2665.50977,0.01016
2664.54541,0.01014
2663.58104,0.01022
2662.61667,0.01019
2661.65231,0.01003
2660.68794,0.00992
2659.72357,0.00990
2658.75921,0.00992
2657.79484,0.00997
2656.83047,0.01004
2655.86611,0.01002
2654.90174,0.00988
2653.93737,0.00968
2652.97301,0.00951
2652.00864,0.00935
2651.04427,0.00925
2650.07991,0.00921
2649.11554,0.00920
2648.15117,0.00916
2647.18681,0.00915
2646.22244,0.00916
2645.25807,0.00917
2644.29371,0.00919
2643.32934,0.00917
2642.36497,0.00912
2641.40061,0.00907
2640.43624,0.00904
2639.47187,0.00900
2638.50750,0.00904
2637.54314,0.00917
2636.57877,0.00921
2635.61440,0.00907
2634.65004,0.00895
2633.68567,0.00899
2632.72130,0.00904
2631.75694,0.00902
2630.79257,0.00893
2629.82820,0.00882
2628.86384,0.00876
2627.89947,0.00879
2626.93510,0.00884
2625.97074,0.00884
2625.00637,0.00880
2624.04200,0.00878
2623.07764,0.00875
2622.11327,0.00862
2621.14890,0.00850
2620.18454,0.00845
2619.22017,0.00839
2618.25580,0.00836
2617.29144,0.00838
2616.32707,0.00840
2615.36270,0.00840
2614.39834,0.00845
2613.43397,0.00853
2612.46960,0.00854
2611.50524,0.00845
2610.54087,0.00840
2609.57650,0.00845
2608.61213,0.00850
2607.64777,0.00845
2606.68340,0.00835
2605.71903,0.00829
2604.75467,0.00822
2603.79030,0.00809
2602.82593,0.00796
2601.86157,0.00791
2600.89720,0.00798
2599.93283,0.00816
2598.96847,0.00820
2598.00410,0.00808
2597.03973,0.00804
2596.07537,0.00812
2595.11100,0.00823
2594.14663,0.00830
2593.18227,0.00826
2592.21790,0.00811
2591.25353,0.00797
2590.28917,0.00791
2589.32480,0.00788
2588.36043,0.00789
2587.39607,0.00791
2586.43170,0.00792
2585.46733,0.00793
2584.50297,0.00795
2583.53860,0.00793
2582.57423,0.00785
2581.60986,0.00788
2580.64550,0.00807
2579.68113,0.00819
2578.71676,0.00810
2577.75240,0.00794
2576.78803,0.00782
2575.82366,0.00768
2574.85930,0.00752
2573.89493,0.00749
2572.93056,0.00761
2571.96620,0.00768
2571.00183,0.00768
2570.03746,0.00770
2569.07310,0.00772
2568.10873,0.00769
2567.14436,0.00759
2566.18000,0.00755
2565.21563,0.00762
2564.25126,0.00768
2563.28690,0.00762
2562.32253,0.00752
2561.35816,0.00744
2560.39380,0.00744
2559.42943,0.00750
2558.46506,0.00749
2557.50070,0.00739
2556.53633,0.00738
2555.57196,0.00750
2554.60760,0.00758
2553.64323,0.00749
2552.67886,0.00730
2551.71449,0.00720
2550.75013,0.00712
2549.78576,0.00696
2548.82139,0.00687
2547.85703,0.00693
2546.89266,0.00717
2545.92829,0.00748
2544.96393,0.00762
2543.99956,0.00758
2543.03519,0.00753
2542.07083,0.00746
2541.10646,0.00741
2540.14209,0.00744
2539.17773,0.00756
2538.21336,0.00768
2537.24899,0.00769
2536.28463,0.00755
2535.32026,0.00745
2534.35589,0.00750
2533.39153,0.00753
2532.42716,0.00747
2531.46279,0.00740
2530.49843,0.00735
2529.53406,0.00726
2528.56969,0.00731
2527.60533,0.00758
2526.64096,0.00775
2525.67659,0.00763
2524.71223,0.00746
2523.74786,0.00739
2522.78349,0.00735
2521.81912,0.00737
2520.85476,0.00747
2519.89039,0.00754
2518.92602,0.00754
2517.96166,0.00751
2516.99729,0.00744
2516.03292,0.00728
2515.06856,0.00717
2514.10419,0.00722
2513.13982,0.00729
2512.17546,0.00723
2511.21109,0.00719
2510.24672,0.00723
2509.28236,0.00733
2508.31799,0.00742
2507.35362,0.00744
2506.38926,0.00742
2505.42489,0.00743
2504.46052,0.00747
2503.49616,0.00746
2502.53179,0.00748
2501.56742,0.00762
2500.60306,0.00776
2499.63869,0.00778
2498.67432,0.00764
2497.70996,0.00740
2496.74559,0.00725
2495.78122,0.00733
2494.81685,0.00753
2493.85249,0.00764
2492.88812,0.00763
2491.92375,0.00766
2490.95939,0.00770
2489.99502,0.00761
2489.03065,0.00749
2488.06629,0.00751
2487.10192,0.00756
2486.13755,0.00753
2485.17319,0.00749
2484.20882,0.00751
2483.24445,0.00754
2482.28009,0.00753
2481.31572,0.00749
2480.35135,0.00747
2479.38699,0.00751
2478.42262,0.00756
2477.45825,0.00746
2476.49389,0.00728
2475.52952,0.00718
2474.56515,0.00719
2473.60079,0.00723
2472.63642,0.00730
2471.67205,0.00738
2470.70769,0.00738
2469.74332,0.00741
2468.77895,0.00754
2467.81459,0.00765
2466.85022,0.00769
2465.88585,0.00769
2464.92148,0.00770
2463.95712,0.00767
2462.99275,0.00761
2462.02838,0.00760
2461.06402,0.00762
2460.09965,0.00767
2459.13528,0.00776
2458.17092,0.00778
2457.20655,0.00766
2456.24218,0.00756
2455.27782,0.00761
2454.31345,0.00769
2453.34908,0.00764
2452.38472,0.00754
2451.42035,0.00748
2450.45598,0.00749
2449.49162,0.00749
2448.52725,0.00746
2447.56288,0.00749
2446.59852,0.00766
2445.63415,0.00781
2444.66978,0.00772
2443.70542,0.00756
2442.74105,0.00756
2441.77668,0.00766
2440.81232,0.00772
2439.84795,0.00775
2438.88358,0.00781
2437.91921,0.00791
2436.95485,0.00795
2435.99048,0.00792
2435.02611,0.00782
2434.06175,0.00773
2433.09738,0.00769
2432.13301,0.00768
2431.16865,0.00772
2430.20428,0.00773
2429.23991,0.00770
2428.27555,0.00771
2427.31118,0.00781
2426.34681,0.00790
2425.38245,0.00797
2424.41808,0.00803
2423.45371,0.00810
2422.48935,0.00813
2421.52498,0.00807
2420.56061,0.00790
2419.59625,0.00778
2418.63188,0.00781
2417.66751,0.00797
2416.70315,0.00811
2415.73878,0.00814
2414.77441,0.00811
2413.81005,0.00805
2412.84568,0.00791
2411.88131,0.00781
2410.91695,0.00790
2409.95258,0.00816
2408.98821,0.00846
2408.02384,0.00860
2407.05948,0.00848
2406.09511,0.00822
2405.13074,0.00809
2404.16638,0.00817
2403.20201,0.00828
2402.23764,0.00829
2401.27328,0.00824
2400.30891,0.00812
2399.34454,0.00790
2398.38018,0.00780
2397.41581,0.00787
2396.45144,0.00801
2395.48708,0.00814
2394.52271,0.00824
2393.55834,0.00832
2392.59398,0.00841
2391.62961,0.00855
2390.66524,0.00871
2389.70088,0.00884
2388.73651,0.00893
2387.77214,0.00903
2386.80778,0.00916
2385.84341,0.00932
2384.87904,0.00950
2383.91468,0.00969
2382.95031,0.00980
2381.98594,0.00981
2381.02158,0.00972
2380.05721,0.00949
2379.09284,0.00928
2378.12847,0.00933
2377.16411,0.00952
2376.19974,0.00957
2375.23537,0.00944
2374.27101,0.00942
2373.30664,0.00933
2372.34227,0.00925
2371.37791,0.00946
2370.41354,0.00968
2369.44917,0.00972
2368.48481,0.00983
2367.52044,0.01020
2366.55607,0.01071
2365.59171,0.01064
2364.62734,0.00998
2363.66297,0.00951
2362.69861,0.00965
2361.73424,0.01037
2360.76987,0.01118
2359.80551,0.01148
2358.84114,0.01128
2357.87677,0.01082
2356.91241,0.01054
2355.94804,0.01049
2354.98367,0.01061
2354.01931,0.01105
2353.05494,0.01121
2352.09057,0.01122
2351.12620,0.01205
2350.16184,0.01357
2349.19747,0.01464
2348.23310,0.01384
2347.26874,0.01191
2346.30437,0.01049
2345.34000,0.01027
2344.37564,0.01088
2343.41127,0.01167
2342.44690,0.01172
2341.48254,0.01168
2340.51817,0.01183
2339.55380,0.01159
2338.58944,0.01147
2337.62507,0.01137
2336.66070,0.01142
2335.69634,0.01119
2334.73197,0.01134
2333.76760,0.01155
2332.80324,0.01131
2331.83887,0.01092
2330.87450,0.01067
2329.91014,0.01113
2328.94577,0.01118
2327.98140,0.01142
2327.01704,0.01171
2326.05267,0.01230
2325.08830,0.01203
2324.12394,0.01192
2323.15957,0.01154
2322.19520,0.01181
2321.23083,0.01117
2320.26647,0.01096
2319.30210,0.01060
2318.33773,0.01095
2317.37337,0.01076
2316.40900,0.01106
2315.44463,0.01108
2314.48027,0.01141
2313.51590,0.01130
2312.55153,0.01150
2311.58717,0.01129
2310.62280,0.01126
2309.65843,0.01136
2308.69407,0.01116
2307.72970,0.01118
2306.76533,0.01081
2305.80097,0.01111
2304.83660,0.01117
2303.87223,0.01158
2302.90787,0.01141
2301.94350,0.01127
2300.97913,0.01116
2300.01477,0.01122
2299.05040,0.01137
2298.08603,0.01119
2297.12167,0.01122
2296.15730,0.01097
2295.19293,0.01098
2294.22857,0.01100
2293.26420,0.01116
2292.29983,0.01138
2291.33546,0.01135
2290.37110,0.01126
2289.40673,0.01106
2288.44236,0.01109
2287.47800,0.01111
2286.51363,0.01109
2285.54926,0.01114
2284.58490,0.01114
2283.62053,0.01109
2282.65616,0.01099
2281.69180,0.01102
2280.72743,0.01107
2279.76306,0.01102
2278.79870,0.01098
2277.83433,0.01105
2276.86996,0.01115
2275.90560,0.01126
2274.94123,0.01132
2273.97686,0.01124
2273.01250,0.01107
2272.04813,0.01086
2271.08376,0.01088
2270.11940,0.01106
2269.15503,0.01120
2268.19066,0.01111
2267.22630,0.01106
2266.26193,0.01112
2265.29756,0.01125
2264.33319,0.01149
2263.36883,0.01171
2262.40446,0.01185
2261.44009,0.01161
2260.47573,0.01143
2259.51136,0.01151
2258.54699,0.01181
2257.58263,0.01173
2256.61826,0.01155
2255.65389,0.01133
2254.68953,0.01151
2253.72516,0.01170
2252.76079,0.01188
2251.79643,0.01183
2250.83206,0.01190
2249.86769,0.01185
2248.90333,0.01176
2247.93896,0.01149
2246.97459,0.01130
2246.01023,0.01121
2245.04586,0.01122
2244.08149,0.01138
2243.11713,0.01162
2242.15276,0.01175
2241.18839,0.01163
2240.22403,0.01145
2239.25966,0.01148
2238.29529,0.01161
2237.33093,0.01174
2236.36656,0.01198
2235.40219,0.01216
2234.43782,0.01208
2233.47346,0.01199
2232.50909,0.01204
2231.54472,0.01208
2230.58036,0.01204
2229.61599,0.01207
2228.65162,0.01218
2227.68726,0.01215
2226.72289,0.01191
2225.75852,0.01174
2224.79416,0.01176
2223.82979,0.01193
2222.86542,0.01216
2221.90106,0.01235
2220.93669,0.01244
2219.97232,0.01250
2219.00796,0.01251
2218.04359,0.01242
2217.07922,0.01238
2216.11486,0.01255
2215.15049,0.01279
2214.18612,0.01286
2213.22176,0.01267
2212.25739,0.01252
2211.29302,0.01259
2210.32866,0.01272
2209.36429,0.01278
2208.39992,0.01277
2207.43556,0.01278
2206.47119,0.01297
2205.50682,0.01314
2204.54245,0.01303
2203.57809,0.01282
2202.61372,0.01272
2201.64935,0.01290
2200.68499,0.01329
2199.72062,0.01343
2198.75625,0.01317
2197.79189,0.01294
2196.82752,0.01291
2195.86315,0.01285
2194.89879,0.01277
2193.93442,0.01288
2192.97005,0.01299
2192.00569,0.01288
2191.04132,0.01286
2190.07695,0.01320
2189.11259,0.01356
2188.14822,0.01358
2187.18385,0.01335
2186.21949,0.01318
2185.25512,0.01318
2184.29075,0.01339
2183.32639,0.01362
2182.36202,0.01375
2181.39765,0.01385
2180.43329,0.01390
2179.46892,0.01368
2178.50455,0.01342
2177.54018,0.01359
2176.57582,0.01397
2175.61145,0.01406
2174.64708,0.01386
2173.68272,0.01360
2172.71835,0.01343
2171.75398,0.01353
2170.78962,0.01385
2169.82525,0.01400
2168.86088,0.01392
2167.89652,0.01389
2166.93215,0.01398
2165.96778,0.01423
2165.00342,0.01455
2164.03905,0.01460
2163.07468,0.01439
2162.11032,0.01425
2161.14595,0.01419
2160.18158,0.01400
2159.21722,0.01379
2158.25285,0.01380
2157.28848,0.01400
2156.32412,0.01415
2155.35975,0.01409
2154.39538,0.01402
2153.43102,0.01409
2152.46665,0.01407
2151.50228,0.01387
2150.53792,0.01374
2149.57355,0.01383
2148.60918,0.01405
2147.64481,0.01415
2146.68045,0.01409
2145.71608,0.01408
2144.75171,0.01404
2143.78735,0.01383
2142.82298,0.01366
2141.85861,0.01363
2140.89425,0.01359
2139.92988,0.01352
2138.96551,0.01361
2138.00115,0.01388
2137.03678,0.01416
2136.07241,0.01430
2135.10805,0.01426
2134.14368,0.01418
2133.17931,0.01413
2132.21495,0.01398
2131.25058,0.01377
2130.28621,0.01362
2129.32185,0.01364
2128.35748,0.01382
2127.39311,0.01406
2126.42875,0.01431
2125.46438,0.01452
2124.50001,0.01460
2123.53565,0.01448
2122.57128,0.01422
2121.60691,0.01415
2120.64254,0.01422
2119.67818,0.01410
2118.71381,0.01396
2117.74944,0.01402
2116.78508,0.01413
2115.82071,0.01423
2114.85634,0.01435
2113.89198,0.01431
2112.92761,0.01411
2111.96324,0.01404
2110.99888,0.01412
2110.03451,0.01416
2109.07014,0.01409
2108.10578,0.01400
2107.14141,0.01399
2106.17704,0.01402
2105.21268,0.01401
2104.24831,0.01394
2103.28394,0.01391
2102.31958,0.01394
2101.35521,0.01394
2100.39084,0.01398
2099.42648,0.01407
2098.46211,0.01412
2097.49774,0.01417
2096.53338,0.01424
2095.56901,0.01422
2094.60464,0.01409
2093.64028,0.01398
2092.67591,0.01399
2091.71154,0.01409
2090.74717,0.01422
2089.78281,0.01429
2088.81844,0.01428
2087.85407,0.01424
2086.88971,0.01418
2085.92534,0.01405
2084.96097,0.01391
2083.99661,0.01378
2083.03224,0.01373
2082.06787,0.01379
2081.10351,0.01392
2080.13914,0.01398
2079.17477,0.01395
2078.21041,0.01386
2077.24604,0.01374
2076.28167,0.01372
2075.31731,0.01383
2074.35294,0.01395
2073.38857,0.01398
2072.42421,0.01391
2071.45984,0.01378
2070.49547,0.01369
2069.53111,0.01374
2068.56674,0.01381
2067.60237,0.01377
2066.63801,0.01365
2065.67364,0.01355
2064.70927,0.01346
2063.74491,0.01342
2062.78054,0.01350
2061.81617,0.01358
2060.85180,0.01355
2059.88744,0.01346
2058.92307,0.01344
2057.95870,0.01349
2056.99434,0.01348
2056.02997,0.01340
2055.06560,0.01332
2054.10124,0.01333
2053.13687,0.01341
2052.17250,0.01346
2051.20814,0.01351
2050.24377,0.01349
2049.27940,0.01333
2048.31504,0.01324
2047.35067,0.01326
2046.38630,0.01318
2045.42194,0.01308
2044.45757,0.01310
2043.49320,0.01308
2042.52884,0.01291
2041.56447,0.01272
2040.60010,0.01270
2039.63574,0.01286
2038.67137,0.01304
2037.70700,0.01311
2036.74264,0.01325
2035.77827,0.01348
2034.81390,0.01343
2033.84953,0.01296
2032.88517,0.01250
2031.92080,0.01235
2030.95643,0.01250
2029.99207,0.01269
2029.02770,0.01285
2028.06333,0.01285
2027.09897,0.01252
2026.13460,0.01214
2025.17023,0.01216
2024.20587,0.01243
2023.24150,0.01258
2022.27713,0.01254
2021.31277,0.01234
2020.34840,0.01210
2019.38403,0.01202
2018.41967,0.01211
2017.45530,0.01224
2016.49093,0.01237
2015.52657,0.01246
2014.56220,0.01239
2013.59783,0.01227
2012.63347,0.01226
2011.66910,0.01232
2010.70473,0.01234
2009.74037,0.01225
2008.77600,0.01202
2007.81163,0.01183
2006.84727,0.01183
2005.88290,0.01197
2004.91853,0.01206
2003.95416,0.01192
2002.98980,0.01169
2002.02543,0.01163
2001.06106,0.01162
2000.09670,0.01148
1999.13233,0.01128
1998.16796,0.01112
1997.20360,0.01113
1996.23923,0.01130
1995.27486,0.01139
1994.31050,0.01137
1993.34613,0.01129
1992.38176,0.01118
1991.41740,0.01110
1990.45303,0.01112
1989.48866,0.01117
1988.52430,0.01112
1987.55993,0.01096
1986.59556,0.01083
1985.63120,0.01080
1984.66683,0.01082
1983.70246,0.01092
1982.73810,0.01106
1981.77373,0.01102
1980.80936,0.01080
1979.84500,0.01057
1978.88063,0.01028
1977.91626,0.00999
1976.95190,0.00993
1975.98753,0.01011
1975.02316,0.01032
1974.05879,0.01048
1973.09443,0.01057
1972.13006,0.01059
1971.16569,0.01052
1970.20133,0.01034
1969.23696,0.01017
1968.27259,0.01020
1967.30823,0.01041
1966.34386,0.01049
1965.37949,0.01034
1964.41513,0.01033
1963.45076,0.01051
1962.48639,0.01059
1961.52203,0.01047
1960.55766,0.01025
1959.59329,0.00996
1958.62893,0.00981
1957.66456,0.00991
1956.70019,0.00998
1955.73583,0.00983
1954.77146,0.00962
1953.80709,0.00953
1952.84273,0.00960
1951.87836,0.00985
1950.91399,0.01014
1949.94963,0.01028
1948.98526,0.01025
1948.02089,0.01014
1947.05652,0.00998
1946.09216,0.00985
1945.12779,0.00977
1944.16342,0.00962
1943.19906,0.00942
1942.23469,0.00937
1941.27032,0.00951
1940.30596,0.00968
1939.34159,0.00980
1938.37722,0.00981
1937.41286,0.00976
1936.44849,0.00973
1935.48412,0.00975
1934.51976,0.00978
1933.55539,0.00975
1932.59102,0.00967
1931.62666,0.00964
1930.66229,0.00972
1929.69792,0.00978
1928.73356,0.00972
1927.76919,0.00959
1926.80482,0.00954
1925.84046,0.00956
1924.87609,0.00956
1923.91172,0.00953
1922.94736,0.00954
1921.98299,0.00959
1921.01862,0.00960
1920.05426,0.00952
1919.08989,0.00939
1918.12552,0.00933
1917.16115,0.00937
1916.19679,0.00945
1915.23242,0.00950
1914.26805,0.00947
1913.30369,0.00935
1912.33932,0.00926
1911.37495,0.00923
1910.41059,0.00923
1909.44622,0.00923
1908.48185,0.00919
1907.51749,0.00909
1906.55312,0.00902
1905.58875,0.00902
1904.62439,0.00913
1903.66002,0.00922
1902.69565,0.00921
1901.73129,0.00921
1900.76692,0.00933
1899.80255,0.00947
1898.83819,0.00944
1897.87382,0.00927
1896.90945,0.00915
1895.94509,0.00915
1894.98072,0.00920
1894.01635,0.00919
1893.05199,0.00913
1892.08762,0.00909
1891.12325,0.00906
1890.15889,0.00905
1889.19452,0.00911
1888.23015,0.00924
1887.26578,0.00934
1886.30142,0.00935
1885.33705,0.00929
1884.37268,0.00926
1883.40832,0.00931
1882.44395,0.00941
1881.47958,0.00947
1880.51522,0.00943
1879.55085,0.00931
1878.58648,0.00922
1877.62212,0.00924
1876.65775,0.00932
1875.69338,0.00935
1874.72902,0.00931
1873.76465,0.00932
1872.80028,0.00938
1871.83592,0.00938
1870.87155,0.00929
1869.90718,0.00920
1868.94282,0.00919
1867.97845,0.00924
1867.01408,0.00924
1866.04972,0.00922
1865.08535,0.00928
1864.12098,0.00940
1863.15662,0.00949
1862.19225,0.00954
1861.22788,0.00954
1860.26351,0.00950
1859.29915,0.00946
1858.33478,0.00945
1857.37041,0.00947
1856.40605,0.00951
1855.44168,0.00954
1854.47731,0.00956
1853.51295,0.00959
1852.54858,0.00965
1851.58421,0.00971
1850.61985,0.00969
1849.65548,0.00963
1848.69111,0.00961
1847.72675,0.00965
1846.76238,0.00971
1845.79801,0.00972
1844.83365,0.00974
1843.86928,0.00983
1842.90491,0.00994
1841.94055,0.00999
1840.97618,0.01002
1840.01181,0.01008
1839.04745,0.01017
1838.08308,0.01027
1837.11871,0.01033
1836.15435,0.01036
1835.18998,0.01036
1834.22561,0.01042
1833.26125,0.01053
1832.29688,0.01062
1831.33251,0.01059
1830.36814,0.01054
1829.40378,0.01058
1828.43941,0.01069
1827.47504,0.01077
1826.51068,0.01076
1825.54631,0.01075
1824.58194,0.01079
1823.61758,0.01088
1822.65321,0.01100
1821.68884,0.01114
1820.72448,0.01125
1819.76011,0.01133
1818.79574,0.01137
1817.83138,0.01142
1816.86701,0.01149
1815.90264,0.01160
1814.93828,0.01171
1813.97391,0.01179
1813.00954,0.01187
1812.04518,0.01198
1811.08081,0.01211
1810.11644,0.01222
1809.15208,0.01232
1808.18771,0.01242
1807.22334,0.01255
1806.25898,0.01269
1805.29461,0.01281
1804.33024,0.01289
1803.36588,0.01294
1802.40151,0.01302
1801.43714,0.01315
1800.47277,0.01332
1799.50841,0.01349
1798.54404,0.01365
1797.57967,0.01379
1796.61531,0.01394
1795.65094,0.01411
1794.68657,0.01427
1793.72221,0.01441
1792.75784,0.01454
1791.79347,0.01472
1790.82911,0.01496
1789.86474,0.01524
1788.90037,0.01551
1787.93601,0.01576
1786.97164,0.01598
1786.00727,0.01619
1785.04291,0.01644
1784.07854,0.01672
1783.11417,0.01702
1782.14981,0.01731
1781.18544,0.01761
1780.22107,0.01800
1779.25671,0.01846
1778.29234,0.01896
1777.32797,0.01945
1776.36361,0.01996
1775.39924,0.02053
1774.43487,0.02118
1773.47050,0.02193
1772.50614,0.02287
1771.54177,0.02399
1770.57740,0.02521
1769.61304,0.02651
1768.64867,0.02804
1767.68430,0.02990
1766.71994,0.03208
1765.75557,0.03456
1764.79120,0.03744
1763.82684,0.04093
1762.86247,0.04534
1761.89810,0.05094
1760.93374,0.05752
1759.96937,0.06478
1759.00500,0.07297
1758.04064,0.08266
1757.07627,0.09418
1756.11190,0.10710
1755.14754,0.12058
1754.18317,0.13434
1753.21880,0.14871
1752.25444,0.16423
1751.29007,0.18090
1750.32570,0.19747
1749.36134,0.21274
1748.39697,0.22659
1747.43260,0.23899
1746.46824,0.24960
1745.50387,0.25817
1744.53950,0.26445
1743.57513,0.26808
1742.61077,0.26864
1741.64640,0.26550
1740.68203,0.25782
1739.71767,0.24550
1738.75330,0.23041
1737.78893,0.21480
1736.82457,0.19944
1735.86020,0.18367
1734.89583,0.16641
1733.93147,0.14848
1732.96710,0.13334
1732.00273,0.12298
1731.03837,0.11630
1730.07400,0.11148
1729.10963,0.10741
1728.14527,0.10335
1727.18090,0.09863
1726.21653,0.09287
1725.25217,0.08628
1724.28780,0.07944
1723.32343,0.07301
1722.35907,0.06755
1721.39470,0.06326
1720.43033,0.05994
1719.46597,0.05717
1718.50160,0.05463
1717.53723,0.05234
1716.57286,0.05055
1715.60850,0.04927
1714.64413,0.04830
1713.67976,0.04753
1712.71540,0.04692
1711.75103,0.04642
1710.78666,0.04600
1709.82230,0.04570
1708.85793,0.04552
1707.89356,0.04544
1706.92920,0.04542
1705.96483,0.04546
1705.00046,0.04557
1704.03610,0.04575
1703.07173,0.04595
1702.10736,0.04610
1701.14300,0.04617
1700.17863,0.04621
1699.21426,0.04630
1698.24990,0.04643
1697.28553,0.04655
1696.32116,0.04667
1695.35680,0.04688
1694.39243,0.04721
1693.42806,0.04760
1692.46370,0.04800
1691.49933,0.04841
1690.53496,0.04882
1689.57060,0.04924
1688.60623,0.04969
1687.64186,0.05018
1686.67749,0.05066
1685.71313,0.05111
1684.74876,0.05158
1683.78439,0.05215
1682.82003,0.05281
1681.85566,0.05349
1680.89129,0.05415
1679.92693,0.05482
1678.96256,0.05548
1677.99819,0.05612
1677.03383,0.05671
1676.06946,0.05732
1675.10509,0.05801
1674.14073,0.05878
1673.17636,0.05953
1672.21199,0.06026
1671.24763,0.06098
1670.28326,0.06172
1669.31889,0.06250
1668.35453,0.06331
1667.39016,0.06411
1666.42579,0.06487
1665.46143,0.06563
1664.49706,0.06639
1663.53269,0.06721
1662.56833,0.06807
1661.60396,0.06895
1660.63959,0.06980
1659.67523,0.07061
1658.71086,0.07141
1657.74649,0.07218
1656.78212,0.07291
1655.81776,0.07357
1654.85339,0.07415
1653.88902,0.07469
1652.92466,0.07523
1651.96029,0.07577
1650.99592,0.07629
1650.03156,0.07672
1649.06719,0.07704
1648.10282,0.07723
1647.13846,0.07735
1646.17409,0.07745
1645.20972,0.07758
1644.24536,0.07773
1643.28099,0.07783
1642.31662,0.07781
1641.35226,0.07768
1640.38789,0.07750
1639.42352,0.07731
1638.45916,0.07712
1637.49479,0.07686
1636.53042,0.07645
1635.56606,0.07590
1634.60169,0.07535
1633.63732,0.07491
1632.67296,0.07454
1631.70859,0.07411
1630.74422,0.07358
1629.77985,0.07293
1628.81549,0.07217
1627.85112,0.07133
1626.88675,0.07048
1625.92239,0.06966
1624.95802,0.06880
1623.99365,0.06781
1623.02929,0.06673
1622.06492,0.06571
1621.10055,0.06478
1620.13619,0.06389
1619.17182,0.06297
1618.20745,0.06195
1617.24309,0.06076
1616.27872,0.05949
1615.31435,0.05836
1614.34999,0.05740
1613.38562,0.05648
1612.42125,0.05553
1611.45689,0.05455
1610.49252,0.05355
1609.52815,0.05254
1608.56379,0.05154
1607.59942,0.05055
1606.63505,0.04959
1605.67069,0.04867
1604.70632,0.04778
1603.74195,0.04693
1602.77759,0.04611
1601.81322,0.04533
1600.84885,0.04459
1599.88448,0.04385
1598.92012,0.04312
1597.95575,0.04238
1596.99138,0.04165
1596.02702,0.04094
1595.06265,0.04026
1594.09828,0.03964
1593.13392,0.03906
1592.16955,0.03852
1591.20518,0.03799
1590.24082,0.03747
1589.27645,0.03697
1588.31208,0.03649
1587.34772,0.03601
1586.38335,0.03553
1585.41898,0.03506
1584.45462,0.03462
1583.49025,0.03421
1582.52588,0.03382
1581.56152,0.03344
1580.59715,0.03307
1579.63278,0.03271
1578.66842,0.03233
1577.70405,0.03192
1576.73968,0.03148
1575.77532,0.03108
1574.81095,0.03080
1573.84658,0.03061
1572.88222,0.03042
1571.91785,0.03017
1570.95348,0.02985
1569.98911,0.02950
1569.02475,0.02920
1568.06038,0.02899
1567.09601,0.02885
1566.13165,0.02870
1565.16728,0.02853
1564.20291,0.02835
1563.23855,0.02817
1562.27418,0.02796
1561.30981,0.02765
1560.34545,0.02723
1559.38108,0.02683
1558.41671,0.02657
1557.45235,0.02649
1556.48798,0.02648
1555.52361,0.02645
1554.55925,0.02634
1553.59488,0.02622
1552.63051,0.02610
1551.66615,0.02597
1550.70178,0.02581
1549.73741,0.02568
1548.77305,0.02559
1547.80868,0.02550
1546.84431,0.02535
1545.87995,0.02515
1544.91558,0.02495
1543.95121,0.02479
1542.98684,0.02466
1542.02248,0.02454
1541.05811,0.02441
1540.09374,0.02428
1539.12938,0.02419
1538.16501,0.02419
1537.20064,0.02422
1536.23628,0.02421
1535.27191,0.02411
1534.30754,0.02396
1533.34318,0.02382
1532.37881,0.02377
1531.41444,0.02377
1530.45008,0.02376
1529.48571,0.02370
1528.52134,0.02360
1527.55698,0.02349
1526.59261,0.02339
1525.62824,0.02333
1524.66388,0.02327
1523.69951,0.02319
1522.73514,0.02306
1521.77078,0.02292
1520.80641,0.02285
1519.84204,0.02286
1518.87768,0.02287
1517.91331,0.02280
1516.94894,0.02271
1515.98458,0.02268
1515.02021,0.02273
1514.05584,0.02280
1513.09147,0.02282
1512.12711,0.02279
1511.16274,0.02274
1510.19837,0.02266
1509.23401,0.02258
1508.26964,0.02251
1507.30527,0.02247
1506.34091,0.02247
1505.37654,0.02254
1504.41217,0.02266
1503.44781,0.02276
1502.48344,0.02282
1501.51907,0.02285
1500.55471,0.02285
1499.59034,0.02282
1498.62597,0.02279
1497.66161,0.02278
1496.69724,0.02280
1495.73287,0.02288
1494.76851,0.02300
1493.80414,0.02314
1492.83977,0.02325
1491.87541,0.02330
1490.91104,0.02331
1489.94667,0.02334
1488.98231,0.02343
1488.01794,0.02360
1487.05357,0.02381
1486.08921,0.02403
1485.12484,0.02429
1484.16047,0.02457
1483.19610,0.02490
1482.23174,0.02529
1481.26737,0.02578
1480.30300,0.02639
1479.33864,0.02713
1478.37427,0.02807
1477.40990,0.02937
1476.44554,0.03123
1475.48117,0.03375
1474.51680,0.03702
1473.55244,0.04136
1472.58807,0.04699
1471.62370,0.05366
1470.65934,0.06081
1469.69497,0.06803
1468.73060,0.07482
1467.76624,0.08046
1466.80187,0.08423
1465.83750,0.08591
1464.87314,0.08580
1463.90877,0.08458
1462.94440,0.08296
1461.98004,0.08137
1461.01567,0.08004
1460.05130,0.07906
1459.08694,0.07843
1458.12257,0.07792
1457.15820,0.07716
1456.19383,0.07583
1455.22947,0.07390
1454.26510,0.07147
1453.30073,0.06873
1452.33637,0.06595
1451.37200,0.06343
1450.40763,0.06134
1449.44327,0.05971
1448.47890,0.05841
1447.51453,0.05735
1446.55017,0.05648
1445.58580,0.05571
1444.62143,0.05497
1443.65707,0.05423
1442.69270,0.05349
1441.72833,0.05277
1440.76397,0.05206
1439.79960,0.05134
1438.83523,0.05053
1437.87087,0.04956
1436.90650,0.04844
1435.94213,0.04731
1434.97777,0.04637
1434.01340,0.04555
1433.04903,0.04472
1432.08467,0.04381
1431.12030,0.04280
1430.15593,0.04170
1429.19157,0.04062
1428.22720,0.03969
1427.26283,0.03898
1426.29846,0.03849
1425.33410,0.03821
1424.36973,0.03815
1423.40536,0.03834
1422.44100,0.03875
1421.47663,0.03931
1420.51226,0.03998
1419.54790,0.04074
1418.58353,0.04154
1417.61916,0.04216
1416.65480,0.04250
1415.69043,0.04252
1414.72606,0.04218
1413.76170,0.04146
1412.79733,0.04034
1411.83296,0.03892
1410.86860,0.03738
1409.90423,0.03601
1408.93986,0.03496
1407.97550,0.03430
1407.01113,0.03397
1406.04676,0.03390
1405.08240,0.03404
1404.11803,0.03434
1403.15366,0.03471
1402.18930,0.03504
1401.22493,0.03528
1400.26056,0.03545
1399.29619,0.03562
1398.33183,0.03587
1397.36746,0.03621
1396.40309,0.03660
1395.43873,0.03699
1394.47436,0.03740
1393.50999,0.03779
1392.54563,0.03809
1391.58126,0.03829
1390.61689,0.03843
1389.65253,0.03856
1388.68816,0.03873
1387.72379,0.03907
1386.75943,0.03968
1385.79506,0.04054
1384.83069,0.04159
1383.86633,0.04288
1382.90196,0.04443
1381.93759,0.04628
1380.97323,0.04836
1380.00886,0.05042
1379.04449,0.05205
1378.08013,0.05282
1377.11576,0.05261
1376.15139,0.05163
1375.18703,0.05027
1374.22266,0.04894
1373.25829,0.04793
1372.29393,0.04734
1371.32956,0.04701
1370.36519,0.04675
1369.40082,0.04650
1368.43646,0.04630
1367.47209,0.04617
1366.50772,0.04606
1365.54336,0.04590
1364.57899,0.04569
1363.61462,0.04546
1362.65026,0.04526
1361.68589,0.04513
1360.72152,0.04501
1359.75716,0.04488
1358.79279,0.04475
1357.82842,0.04464
1356.86406,0.04458
1355.89969,0.04456
1354.93532,0.04457
1353.97096,0.04457
1353.00659,0.04458
1352.04222,0.04459
1351.07786,0.04454
1350.11349,0.04442
1349.14912,0.04422
1348.18476,0.04395
1347.22039,0.04361
1346.25602,0.04326
1345.29166,0.04291
1344.32729,0.04261
1343.36292,0.04238
1342.39856,0.04222
1341.43419,0.04207
1340.46982,0.04189
1339.50545,0.04163
1338.54109,0.04132
1337.57672,0.04093
1336.61235,0.04049
1335.64799,0.04006
1334.68362,0.03971
1333.71925,0.03947
1332.75489,0.03936
1331.79052,0.03934
1330.82615,0.03938
1329.86179,0.03942
1328.89742,0.03949
1327.93305,0.03960
1326.96869,0.03975
1326.00432,0.03997
1325.03995,0.04027
1324.07559,0.04062
1323.11122,0.04098
1322.14685,0.04132
1321.18249,0.04160
1320.21812,0.04179
1319.25375,0.04190
1318.28939,0.04193
1317.32502,0.04191
1316.36065,0.04189
1315.39629,0.04189
1314.43192,0.04194
1313.46755,0.04209
1312.50318,0.04231
1311.53882,0.04257
1310.57445,0.04282
1309.61008,0.04303
1308.64572,0.04318
1307.68135,0.04324
1306.71698,0.04324
1305.75262,0.04324
1304.78825,0.04330
1303.82388,0.04345
1302.85952,0.04364
1301.89515,0.04382
1300.93078,0.04394
1299.96642,0.04398
1299.00205,0.04396
1298.03768,0.04388
1297.07332,0.04378
1296.10895,0.04372
1295.14458,0.04374
1294.18022,0.04382
1293.21585,0.04395
1292.25148,0.04412
1291.28712,0.04438
1290.32275,0.04475
1289.35838,0.04525
1288.39402,0.04585
1287.42965,0.04650
1286.46528,0.04712
1285.50092,0.04768
1284.53655,0.04819
1283.57218,0.04873
1282.60781,0.04933
1281.64345,0.05000
1280.67908,0.05068
1279.71471,0.05127
1278.75035,0.05166
1277.78598,0.05177
1276.82161,0.05165
1275.85725,0.05142
1274.89288,0.05120
1273.92851,0.05106
1272.96415,0.05106
1271.99978,0.05125
1271.03541,0.05168
1270.07105,0.05235
1269.10668,0.05330
1268.14231,0.05441
1267.17795,0.05543
1266.21358,0.05611
1265.24921,0.05628
1264.28485,0.05609
1263.32048,0.05586
1262.35611,0.05585
1261.39175,0.05607
1260.42738,0.05633
1259.46301,0.05649
1258.49865,0.05651
1257.53428,0.05647
1256.56991,0.05642
1255.60555,0.05640
1254.64118,0.05644
1253.67681,0.05659
1252.71244,0.05693
1251.74808,0.05747
1250.78371,0.05821
1249.81934,0.05914
1248.85498,0.06016
1247.89061,0.06118
1246.92624,0.06220
1245.96188,0.06326
1244.99751,0.06435
1244.03314,0.06534
1243.06878,0.06604
1242.10441,0.06639
1241.14004,0.06656
1240.17568,0.06673
1239.21131,0.06688
1238.24694,0.06686
1237.28258,0.06659
1236.31821,0.06609
1235.35384,0.06544
1234.38948,0.06474
1233.42511,0.06406
1232.46074,0.06345
1231.49638,0.06293
1230.53201,0.06252
1229.56764,0.06222
1228.60328,0.06203
1227.63891,0.06190
1226.67454,0.06182
1225.71017,0.06178
1224.74581,0.06182
1223.78144,0.06200
1222.81707,0.06240
1221.85271,0.06298
1220.88834,0.06341
1219.92397,0.06333
1218.95961,0.06268
1217.99524,0.06174
1217.03087,0.06089
1216.06651,0.06026
1215.10214,0.05983
1214.13777,0.05954
1213.17341,0.05930
1212.20904,0.05910
1211.24467,0.05894
1210.28031,0.05889
1209.31594,0.05894
1208.35157,0.05910
1207.38721,0.05938
1206.42284,0.05981
1205.45847,0.06039
1204.49411,0.06112
1203.52974,0.06198
1202.56537,0.06296
1201.60101,0.06408
1200.63664,0.06548
1199.67227,0.06721
1198.70791,0.06921
1197.74354,0.07113
1196.77917,0.07243
1195.81480,0.07287
1194.85044,0.07272
1193.88607,0.07245
1192.92170,0.07234
1191.95734,0.07254
1190.99297,0.07312
1190.02860,0.07409
1189.06424,0.07539
1188.09987,0.07696
1187.13550,0.07886
1186.17114,0.08113
1185.20677,0.08372
1184.24240,0.08660
1183.27804,0.08968
1182.31367,0.09291
1181.34930,0.09623
1180.38494,0.09964
1179.42057,0.10303
1178.45620,0.10624
1177.49184,0.10915
1176.52747,0.11170
1175.56310,0.11380
1174.59874,0.11532
1173.63437,0.11617
1172.67000,0.11637
1171.70564,0.11612
1170.74127,0.11570
1169.77690,0.11533
1168.81254,0.11511
1167.84817,0.11503
1166.88380,0.11502
1165.91943,0.11504
1164.95507,0.11507
1163.99070,0.11504
1163.02633,0.11489
1162.06197,0.11462
1161.09760,0.11419
1160.13323,0.11357
1159.16887,0.11275
1158.20450,0.11176
1157.24013,0.11061
1156.27577,0.10932
1155.31140,0.10794
1154.34703,0.10649
1153.38267,0.10500
1152.41830,0.10348
1151.45393,0.10201
1150.48957,0.10061
1149.52520,0.09927
1148.56083,0.09799
1147.59647,0.09678
1146.63210,0.09568
1145.66773,0.09462
1144.70337,0.09349
1143.73900,0.09225
1142.77463,0.09078
1141.81027,0.08897
1140.84590,0.08677
1139.88153,0.08424
1138.91716,0.08146
1137.95280,0.07849
1136.98843,0.07536
1136.02406,0.07219
1135.05970,0.06912
1134.09533,0.06629
1133.13096,0.06382
1132.16660,0.06174
1131.20223,0.06005
1130.23786,0.05875
1129.27350,0.05795
1128.30913,0.05768
1127.34476,0.05784
1126.38040,0.05838
1125.41603,0.05922
1124.45166,0.06029
1123.48730,0.06150
1122.52293,0.06278
1121.55856,0.06404
1120.59420,0.06521
1119.62983,0.06619
1118.66546,0.06688
1117.70110,0.06723
1116.73673,0.06730
1115.77236,0.06710
1114.80800,0.06668
1113.84363,0.06615
1112.87926,0.06562
1111.91490,0.06513
1110.95053,0.06473
1109.98616,0.06454
1109.02179,0.06466
1108.05743,0.06507
1107.09306,0.06564
1106.12869,0.06627
1105.16433,0.06684
1104.19996,0.06726
1103.23559,0.06759
1102.27123,0.06790
1101.30686,0.06822
1100.34249,0.06854
1099.37813,0.06885
1098.41376,0.06914
1097.44939,0.06929
1096.48503,0.06908
1095.52066,0.06839
1094.55629,0.06729
1093.59193,0.06594
1092.62756,0.06451
1091.66319,0.06308
1090.69883,0.06162
1089.73446,0.06012
1088.77009,0.05860
1087.80573,0.05715
1086.84136,0.05586
1085.87699,0.05471
1084.91263,0.05362
1083.94826,0.05258
1082.98389,0.05159
1082.01953,0.05059
1081.05516,0.04959
1080.09079,0.04865
1079.12642,0.04782
1078.16206,0.04706
1077.19769,0.04634
1076.23332,0.04572
1075.26896,0.04519
1074.30459,0.04473
1073.34022,0.04433
1072.37586,0.04399
1071.41149,0.04371
1070.44712,0.04345
1069.48276,0.04320
1068.51839,0.04298
1067.55402,0.04283
1066.58966,0.04276
1065.62529,0.04276
1064.66092,0.04285
1063.69656,0.04300
1062.73219,0.04309
1061.76782,0.04307
1060.80346,0.04301
1059.83909,0.04289
1058.87472,0.04269
1057.91036,0.04245
1056.94599,0.04221
1055.98162,0.04198
1055.01726,0.04172
1054.05289,0.04139
1053.08852,0.04098
1052.12415,0.04059
1051.15979,0.04022
1050.19542,0.03980
1049.23105,0.03935
1048.26669,0.03894
1047.30232,0.03860
1046.33795,0.03835
1045.37359,0.03818
1044.40922,0.03807
1043.44485,0.03801
1042.48049,0.03798
1041.51612,0.03797
1040.55175,0.03802
1039.58739,0.03812
1038.62302,0.03821
1037.65865,0.03826
1036.69429,0.03831
1035.72992,0.03835
1034.76555,0.03834
1033.80119,0.03823
1032.83682,0.03806
1031.87245,0.03789
1030.90809,0.03778
1029.94372,0.03770
1028.97935,0.03761
1028.01499,0.03748
1027.05062,0.03733
1026.08625,0.03721
1025.12189,0.03711
1024.15752,0.03700
1023.19315,0.03688
1022.22878,0.03679
1021.26442,0.03672
1020.30005,0.03661
1019.33568,0.03647
1018.37132,0.03634
1017.40695,0.03623
1016.44258,0.03610
1015.47822,0.03594
1014.51385,0.03581
1013.54948,0.03573
1012.58512,0.03569
1011.62075,0.03561
1010.65638,0.03547
1009.69202,0.03530
1008.72765,0.03518
1007.76328,0.03514
1006.79892,0.03513
1005.83455,0.03513
1004.87018,0.03515
1003.90582,0.03516
1002.94145,0.03517
1001.97708,0.03519
1001.01272,0.03522
1000.04835,0.03519
999.08398,0.03511
998.11962,0.03502
997.15525,0.03496
996.19088,0.03492
995.22651,0.03489
994.26215,0.03489
993.29778,0.03489
992.33341,0.03489
991.36905,0.03490
990.40468,0.03491
989.44031,0.03490
988.47595,0.03490
987.51158,0.03489
986.54721,0.03492
985.58285,0.03496
984.61848,0.03502
983.65411,0.03509
982.68975,0.03511
981.72538,0.03510
980.76101,0.03512
979.79665,0.03516
978.83228,0.03519
977.86791,0.03525
976.90355,0.03535
975.93918,0.03545
974.97481,0.03559
974.01045,0.03582
973.04608,0.03610
972.08171,0.03633
971.11735,0.03650
970.15298,0.03657
969.18861,0.03654
968.22425,0.03649
967.25988,0.03647
966.29551,0.03648
965.33114,0.03648
964.36678,0.03650
963.40241,0.03658
962.43804,0.03670
961.47368,0.03675
960.50931,0.03672
959.54494,0.03668
958.58058,0.03665
957.61621,0.03660
956.65184,0.03651
955.68748,0.03642
954.72311,0.03632
953.75874,0.03624
952.79438,0.03621
951.83001,0.03620
950.86564,0.03621
949.90128,0.03626
948.93691,0.03639
947.97254,0.03660
947.00818,0.03684
946.04381,0.03701
945.07944,0.03706
944.11508,0.03703
943.15071,0.03697
942.18634,0.03692
941.22198,0.03688
940.25761,0.03683
939.29324,0.03675
938.32888,0.03670
937.36451,0.03672
936.40014,0.03678
935.43577,0.03680
934.47141,0.03682
933.50704,0.03689
932.54267,0.03705
931.57831,0.03722
930.61394,0.03736
929.64957,0.03748
928.68521,0.03761
927.72084,0.03781
926.75647,0.03807
925.79211,0.03835
924.82774,0.03866
923.86337,0.03902
922.89901,0.03937
921.93464,0.03968
920.97027,0.03992
920.00591,0.04009
919.04154,0.04027
918.07717,0.04046
917.11281,0.04058
916.14844,0.04068
915.18407,0.04085
914.21971,0.04105
913.25534,0.04123
912.29097,0.04140
911.32661,0.04159
910.36224,0.04181
909.39787,0.04203
908.43350,0.04222
907.46914,0.04236
906.50477,0.04251
905.54040,0.04270
904.57604,0.04293
903.61167,0.04318
902.64730,0.04340
901.68294,0.04361
900.71857,0.04384
899.75420,0.04407
898.78984,0.04431
897.82547,0.04458
896.86110,0.04491
895.89674,0.04530
894.93237,0.04564
893.96800,0.04588
893.00364,0.04614
892.03927,0.04645
891.07490,0.04679
890.11054,0.04710
889.14617,0.04735
888.18180,0.04758
887.21744,0.04785
886.25307,0.04812
885.28870,0.04836
884.32434,0.04865
883.35997,0.04899
882.39560,0.04932
881.43124,0.04965
880.46687,0.04997
879.50250,0.05026
878.53813,0.05058
877.57377,0.05096
876.60940,0.05133
875.64503,0.05165
874.68067,0.05195
873.71630,0.05227
872.75193,0.05263
871.78757,0.05302
870.82320,0.05344
869.85883,0.05381
868.89447,0.05414
867.93010,0.05447
866.96573,0.05475
866.00137,0.05503
865.03700,0.05533
864.07263,0.05565
863.10827,0.05602
862.14390,0.05638
861.17953,0.05666
860.21517,0.05688
859.25080,0.05717
858.28643,0.05757
857.32207,0.05799
856.35770,0.05838
855.39333,0.05879
854.42897,0.05921
853.46460,0.05959
852.50023,0.05994
851.53587,0.06030
850.57150,0.06071
849.60713,0.06115
848.64276,0.06157
847.67840,0.06195
846.71403,0.06227
845.74966,0.06259
844.78530,0.06294
843.82093,0.06333
842.85656,0.06370
841.89220,0.06402
840.92783,0.06434
839.96346,0.06472
838.99910,0.06514
838.03473,0.06554
837.07036,0.06593
836.10600,0.06631
835.14163,0.06662
834.17726,0.06684
833.21290,0.06707
832.24853,0.06732
831.28416,0.06757
830.31980,0.06782
829.35543,0.06805
828.39106,0.06824
827.42670,0.06849
826.46233,0.06880
825.49796,0.06914
824.53360,0.06954
823.56923,0.06993
822.60486,0.07028
821.64049,0.07058
820.67613,0.07087
819.71176,0.07117
818.74739,0.07149
817.78303,0.07183
816.81866,0.07219
815.85429,0.07251
814.88993,0.07286
813.92556,0.07326
812.96119,0.07365
811.99683,0.07400
811.03246,0.07430
810.06809,0.07458
809.10373,0.07490
808.13936,0.07530
807.17499,0.07572
806.21063,0.07606
805.24626,0.07630
804.28189,0.07660
803.31753,0.07703
802.35316,0.07744
801.38879,0.07776
800.42443,0.07806
799.46006,0.07840
798.49569,0.07875
797.53133,0.07910
796.56696,0.07949
795.60259,0.07988
794.63823,0.08022
793.67386,0.08057
792.70949,0.08098
791.74512,0.08138
790.78076,0.08174
789.81639,0.08212
788.85202,0.08259
787.88766,0.08310
786.92329,0.08357
785.95892,0.08401
784.99456,0.08450
784.03019,0.08500
783.06582,0.08549
782.10146,0.08599
781.13709,0.08646
780.17272,0.08686
779.20836,0.08724
778.24399,0.08760
777.27962,0.08796
776.31526,0.08831
775.35089,0.08869
774.38652,0.08909
773.42216,0.08952
772.45779,0.08994
771.49342,0.09032
770.52906,0.09071
769.56469,0.09116
768.60032,0.09165
767.63596,0.09211
766.67159,0.09256
765.70722,0.09305
764.74286,0.09352
763.77849,0.09390
762.81412,0.09424
761.84975,0.09463
760.88539,0.09509
759.92102,0.09552
758.95665,0.09592
757.99229,0.09634
757.02792,0.09675
756.06355,0.09710
755.09919,0.09744
754.13482,0.09785
753.17045,0.09832
752.20609,0.09876
751.24172,0.09920
750.27735,0.09972
749.31299,0.10026
748.34862,0.10077
747.38425,0.10129
746.41989,0.10186
745.45552,0.10246
744.49115,0.10311
743.52679,0.10385
742.56242,0.10467
741.59805,0.10551
740.63369,0.10628
739.66932,0.10695
738.70495,0.10760
737.74059,0.10831
736.77622,0.10912
735.81185,0.10999
734.84748,0.11090
733.88312,0.11186
732.91875,0.11290
731.95438,0.11401
730.99002,0.11524
730.02565,0.11655
729.06128,0.11792
728.09692,0.11929
727.13255,0.12064
726.16818,0.12198
725.20382,0.12329
724.23945,0.12463
723.27508,0.12603
722.31072,0.12732
721.34635,0.12816
720.38198,0.12857
719.41762,0.12878
718.45325,0.12847
717.48888,0.12770
716.52452,0.12681
715.56015,0.12596
714.59578,0.12530
713.63142,0.12488
712.66705,0.12464
711.70268,0.12442
710.73832,0.12414
709.77395,0.12387
708.80958,0.12367
707.84522,0.12353
706.88085,0.12342
705.91648,0.12337
704.95211,0.12340
703.98775,0.12346
703.02338,0.12350
702.05901,0.12354
701.09465,0.12363
700.13028,0.12368
699.16591,0.12373
698.20155,0.12388
697.23718,0.12415
696.27281,0.12443
695.30845,0.12462
694.34408,0.12475
693.37971,0.12488
692.41535,0.12498
691.45098,0.12503
690.48661,0.12507
689.52225,0.12516
688.55788,0.12530
687.59351,0.12545
686.62915,0.12558
685.66478,0.12566
684.70041,0.12572
683.73605,0.12575
682.77168,0.12578
681.80731,0.12580
680.84295,0.12579
679.87858,0.12577
678.91421,0.12580
677.94984,0.12585
676.98548,0.12584
676.02111,0.12576
675.05674,0.12565
674.09238,0.12554
673.12801,0.12548
672.16364,0.12566
671.19928,0.12634
670.23491,0.12692
669.27054,0.12563
668.30618,0.12293
667.34181,0.12380
666.37744,0.12625
665.41308,0.12649
664.44871,0.12567
663.48434,0.12519
662.51998,0.12507
661.55561,0.12506
660.59124,0.12503
659.62688,0.12499
658.66251,0.12492
657.69814,0.12485
656.73378,0.12473
655.76941,0.12452
654.80504,0.12426
653.84068,0.12399
652.87631,0.12378
651.91194,0.12370
650.94758,0.12373
649.98321,0.12381
649.01884,0.12387
648.05447,0.12389
647.09011,0.12384
646.12574,0.12375
645.16137,0.12368
644.19701,0.12357
643.23264,0.12331
642.26827,0.12285
641.30391,0.12234
640.33954,0.12192
639.37517,0.12155
638.41081,0.12116
637.44644,0.12083
636.48207,0.12074
635.51771,0.12098
634.55334,0.12133
633.58897,0.12156
632.62461,0.12163
631.66024,0.12170
630.69587,0.12187
629.73151,0.12196
628.76714,0.12173
627.80277,0.12126
626.83841,0.12093
625.87404,0.12085
624.90967,0.12093
623.94531,0.12079
622.98094,0.12037
622.01657,0.12017
621.05221,0.12005
620.08784,0.11978
619.12347,0.11980
618.15910,0.12002
617.19474,0.12007
616.23037,0.11992
615.26600,0.11965
614.30164,0.11972
613.33727,0.12003
612.37290,0.11977
611.40854,0.11923
610.44417,0.11937
609.47980,0.11977
608.51544,0.11988
607.55107,0.12029
606.58670,0.12127
605.62234,0.12225
604.65797,0.12269
603.69360,0.12271
602.72924,0.12282
601.76487,0.12313
600.80050,0.12341
599.83614,0.12350
