wavelength,value
3998.26466,0.01199
3997.30030,0.01158
3996.33593,0.01123
3995.37156,0.01118
3994.40719,0.01132
3993.44283,0.01139
3992.47846,0.01140
3991.51409,0.01149
3990.54973,0.01170
3989.58536,0.01190
3988.62099,0.01184
3987.65663,0.01154
3986.69226,0.01133
3985.72789,0.01140
3984.76353,0.01165
3983.79916,0.01185
3982.83479,0.01190
3981.87043,0.01186
3980.90606,0.01181
3979.94169,0.01181
3978.97733,0.01198
3978.01296,0.01228
3977.04859,0.01243
3976.08423,0.01229
3975.11986,0.01201
3974.15549,0.01189
3973.19113,0.01202
3972.22676,0.01221
3971.26239,0.01220
3970.29803,0.01197
3969.33366,0.01168
3968.36929,0.01149
3967.40493,0.01145
3966.44056,0.01160
3965.47619,0.01200
3964.51182,0.01236
3963.54746,0.01230
3962.58309,0.01198
3961.61872,0.01183
3960.65436,0.01191
3959.68999,0.01206
3958.72562,0.01216
3957.76126,0.01221
3956.79689,0.01225
3955.83252,0.01220
3954.86816,0.01198
3953.90379,0.01172
3952.93942,0.01161
3951.97506,0.01170
3951.01069,0.01192
3950.04632,0.01220
3949.08196,0.01245
3948.11759,0.01253
3947.15322,0.01244
3946.18886,0.01228
3945.22449,0.01209
3944.26012,0.01190
3943.29576,0.01180
3942.33139,0.01186
3941.36702,0.01192
3940.40266,0.01186
3939.43829,0.01179
3938.47392,0.01181
3937.50955,0.01197
3936.54519,0.01218
3935.58082,0.01226
3934.61645,0.01220
3933.65209,0.01210
3932.68772,0.01205
3931.72335,0.01214
3930.75899,0.01240
3929.79462,0.01268
3928.83025,0.01276
3927.86589,0.01260
3926.90152,0.01233
3925.93715,0.01207
3924.97279,0.01191
3924.00842,0.01188
3923.04405,0.01192
3922.07969,0.01201
3921.11532,0.01211
3920.15095,0.01212
3919.18659,0.01206
3918.22222,0.01203
3917.25785,0.01207
3916.29349,0.01215
3915.32912,0.01222
3914.36475,0.01233
3913.40039,0.01243
3912.43602,0.01246
3911.47165,0.01245
3910.50729,0.01246
3909.54292,0.01250
3908.57855,0.01253
3907.61418,0.01251
3906.64982,0.01244
3905.68545,0.01234
3904.72108,0.01226
3903.75672,0.01220
3902.79235,0.01215
3901.82798,0.01212
3900.86362,0.01212
3899.89925,0.01215
3898.93488,0.01223
3897.97052,0.01230
3897.00615,0.01230
3896.04178,0.01225
3895.07742,0.01218
3894.11305,0.01210
3893.14868,0.01207
3892.18432,0.01213
3891.21995,0.01221
3890.25558,0.01218
3889.29122,0.01215
3888.32685,0.01223
3887.36248,0.01243
3886.39812,0.01261
3885.43375,0.01267
3884.46938,0.01261
3883.50502,0.01242
3882.54065,0.01218
3881.57628,0.01202
3880.61191,0.01204
3879.64755,0.01223
3878.68318,0.01246
3877.71881,0.01258
3876.75445,0.01257
3875.79008,0.01250
3874.82571,0.01253
3873.86135,0.01271
3872.89698,0.01288
3871.93261,0.01287
3870.96825,0.01268
3870.00388,0.01247
3869.03951,0.01242
3868.07515,0.01254
3867.11078,0.01267
3866.14641,0.01265
3865.18205,0.01248
3864.21768,0.01229
3863.25331,0.01219
3862.28895,0.01221
3861.32458,0.01229
3860.36021,0.01246
3859.39585,0.01276
3858.43148,0.01313
3857.46711,0.01337
3856.50275,0.01331
3855.53838,0.01297
3854.57401,0.01252
3853.60965,0.01223
3852.64528,0.01229
3851.68091,0.01261
3850.71654,0.01296
3849.75218,0.01317
3848.78781,0.01316
3847.82344,0.01297
3846.85908,0.01277
3845.89471,0.01270
3844.93034,0.01276
3843.96598,0.01279
3843.00161,0.01275
3842.03724,0.01270
3841.07288,0.01269
3840.10851,0.01268
3839.14414,0.01268
3838.17978,0.01278
3837.21541,0.01305
3836.25104,0.01333
3835.28668,0.01346
3834.32231,0.01344
3833.35794,0.01343
3832.39358,0.01354
3831.42921,0.01367
3830.46484,0.01371
3829.50048,0.01360
3828.53611,0.01342
3827.57174,0.01331
3826.60738,0.01336
3825.64301,0.01353
3824.67864,0.01372
3823.71428,0.01383
3822.74991,0.01381
3821.78554,0.01370
3820.82117,0.01362
3819.85681,0.01363
3818.89244,0.01375
3817.92807,0.01386
3816.96371,0.01386
3815.99934,0.01377
3815.03497,0.01371
3814.07061,0.01376
3813.10624,0.01387
3812.14187,0.01396
3811.17751,0.01399
3810.21314,0.01402
3809.24877,0.01403
3808.28441,0.01405
3807.32004,0.01416
3806.35567,0.01431
3805.39131,0.01437
3804.42694,0.01427
3803.46257,0.01411
3802.49821,0.01404
3801.53384,0.01413
3800.56947,0.01435
3799.60511,0.01456
3798.64074,0.01464
3797.67637,0.01458
3796.71201,0.01448
3795.74764,0.01447
3794.78327,0.01457
3793.81890,0.01474
3792.85454,0.01495
3791.89017,0.01512
3790.92580,0.01519
3789.96144,0.01521
3788.99707,0.01525
3788.03270,0.01532
3787.06834,0.01534
3786.10397,0.01530
3785.13960,0.01523
3784.17524,0.01514
3783.21087,0.01507
3782.24650,0.01506
3781.28214,0.01515
3780.31777,0.01533
3779.35340,0.01551
3778.38904,0.01559
3777.42467,0.01560
3776.46030,0.01565
3775.49594,0.01575
3774.53157,0.01584
3773.56720,0.01588
3772.60284,0.01587
3771.63847,0.01586
3770.67410,0.01588
3769.70974,0.01595
3768.74537,0.01608
3767.78100,0.01626
3766.81664,0.01645
3765.85227,0.01663
3764.88790,0.01678
3763.92353,0.01687
3762.95917,0.01687
3761.99480,0.01679
3761.03043,0.01673
3760.06607,0.01674
3759.10170,0.01681
3758.13733,0.01688
3757.17297,0.01692
3756.20860,0.01703
3755.24423,0.01717
3754.27987,0.01723
3753.31550,0.01715
3752.35113,0.01708
3751.38677,0.01708
3750.42240,0.01710
3749.45803,0.01718
3748.49367,0.01735
3747.52930,0.01761
3746.56493,0.01793
3745.60057,0.01819
3744.63620,0.01822
3743.67183,0.01802
3742.70747,0.01787
3741.74310,0.01795
3740.77873,0.01824
3739.81437,0.01863
3738.85000,0.01895
3737.88563,0.01905
3736.92127,0.01886
3735.95690,0.01855
3734.99253,0.01836
3734.02816,0.01834
3733.06380,0.01844
3732.09943,0.01872
3731.13506,0.01912
3730.17070,0.01951
3729.20633,0.01981
3728.24196,0.02005
3727.27760,0.02029
3726.31323,0.02060
3725.34886,0.02102
3724.38450,0.02140
3723.42013,0.02157
3722.45576,0.02151
3721.49140,0.02138
3720.52703,0.02142
3719.56266,0.02175
3718.59830,0.02225
3717.63393,0.02265
3716.66956,0.02281
3715.70520,0.02285
3714.74083,0.02297
3713.77646,0.02321
3712.81210,0.02345
3711.84773,0.02359
3710.88336,0.02369
3709.91900,0.02390
3708.95463,0.02430
3707.99026,0.02480
3707.02589,0.02527
3706.06153,0.02567
3705.09716,0.02596
3704.13279,0.02619
3703.16843,0.02646
3702.20406,0.02680
3701.23969,0.02712
3700.27533,0.02731
3699.31096,0.02743
3698.34659,0.02762
3697.38223,0.02801
3696.41786,0.02861
3695.45349,0.02933
3694.48913,0.02992
3693.52476,0.03039
3692.56039,0.03082
3691.59603,0.03129
3690.63166,0.03183
3689.66729,0.03254
3688.70293,0.03330
3687.73856,0.03402
3686.77419,0.03460
3685.80983,0.03514
3684.84546,0.03567
3683.88109,0.03630
3682.91673,0.03707
3681.95236,0.03797
3680.98799,0.03884
3680.02363,0.03961
3679.05926,0.04031
3678.09489,0.04107
3677.13052,0.04187
3676.16616,0.04267
3675.20179,0.04352
3674.23742,0.04440
3673.27306,0.04520
3672.30869,0.04587
3671.34432,0.04648
3670.37996,0.04715
3669.41559,0.04802
3668.45122,0.04909
3667.48686,0.05029
3666.52249,0.05152
3665.55812,0.05272
3664.59376,0.05391
3663.62939,0.05509
3662.66502,0.05620
3661.70066,0.05728
3660.73629,0.05840
3659.77192,0.05953
3658.80756,0.06057
3657.84319,0.06155
3656.87882,0.06262
3655.91446,0.06381
3654.95009,0.06499
3653.98572,0.06603
3653.02136,0.06695
3652.05699,0.06781
3651.09262,0.06863
3650.12826,0.06942
3649.16389,0.07023
3648.19952,0.07121
3647.23515,0.07248
3646.27079,0.07387
3645.30642,0.07513
3644.34205,0.07615
3643.37769,0.07705
3642.41332,0.07801
3641.44895,0.07908
3640.48459,0.08014
3639.52022,0.08108
3638.55585,0.08192
3637.59149,0.08277
3636.62712,0.08374
3635.66275,0.08485
3634.69839,0.08607
3633.73402,0.08726
3632.76965,0.08829
3631.80529,0.08912
3630.84092,0.08983
3629.87655,0.09056
3628.91219,0.09137
3627.94782,0.09231
3626.98345,0.09333
3626.01909,0.09435
3625.05472,0.09536
3624.09035,0.09632
3623.12599,0.09724
3622.16162,0.09807
3621.19725,0.09869
3620.23288,0.09915
3619.26852,0.09969
3618.30415,0.10050
3617.33978,0.10160
3616.37542,0.10276
3615.41105,0.10373
3614.44668,0.10455
3613.48232,0.10543
3612.51795,0.10645
3611.55358,0.10751
3610.58922,0.10851
3609.62485,0.10940
3608.66048,0.11025
3607.69612,0.11119
3606.73175,0.11227
3605.76738,0.11333
3604.80302,0.11423
3603.83865,0.11494
3602.87428,0.11562
3601.90992,0.11639
3600.94555,0.11728
3599.98118,0.11822
3599.01682,0.11912
3598.05245,0.11981
3597.08808,0.12042
3596.12372,0.12108
3595.15935,0.12187
3594.19498,0.12277
3593.23062,0.12376
3592.26625,0.12475
3591.30188,0.12572
3590.33751,0.12665
3589.37315,0.12757
3588.40878,0.12842
3587.44441,0.12925
3586.48005,0.13021
3585.51568,0.13134
3584.55131,0.13246
3583.58695,0.13340
3582.62258,0.13424
3581.65821,0.13509
3580.69385,0.13594
3579.72948,0.13675
3578.76511,0.13767
3577.80075,0.13877
3576.83638,0.13992
3575.87201,0.14091
3574.90765,0.14178
3573.94328,0.14276
3572.97891,0.14398
3572.01455,0.14523
3571.05018,0.14625
3570.08581,0.14700
3569.12145,0.14762
3568.15708,0.14840
3567.19271,0.14949
3566.22835,0.15077
3565.26398,0.15193
3564.29961,0.15292
3563.33524,0.15388
3562.37088,0.15477
3561.40651,0.15556
3560.44214,0.15634
3559.47778,0.15719
3558.51341,0.15813
3557.54904,0.15917
3556.58468,0.16036
3555.62031,0.16161
3554.65594,0.16278
3553.69158,0.16379
3552.72721,0.16465
3551.76284,0.16550
3550.79848,0.16650
3549.83411,0.16767
3548.86974,0.16886
3547.90538,0.16994
3546.94101,0.17093
3545.97664,0.17191
3545.01228,0.17282
3544.04791,0.17366
3543.08354,0.17450
3542.11918,0.17534
3541.15481,0.17622
3540.19044,0.17726
3539.22608,0.17854
3538.26171,0.17993
3537.29734,0.18112
3536.33298,0.18194
3535.36861,0.18274
3534.40424,0.18385
3533.43987,0.18511
3532.47551,0.18617
3531.51114,0.18700
3530.54677,0.18781
3529.58241,0.18869
3528.61804,0.18963
3527.65367,0.19066
3526.68931,0.19175
3525.72494,0.19288
3524.76057,0.19407
3523.79621,0.19525
3522.83184,0.19621
3521.86747,0.19698
3520.90311,0.19784
3519.93874,0.19889
3518.97437,0.20013
3518.01001,0.20147
3517.04564,0.20258
3516.08127,0.20333
3515.11691,0.20408
3514.15254,0.20510
3513.18817,0.20631
3512.22381,0.20755
3511.25944,0.20880
3510.29507,0.20995
3509.33071,0.21093
3508.36634,0.21184
3507.40197,0.21273
3506.43761,0.21356
3505.47324,0.21445
3504.50887,0.21550
3503.54450,0.21659
3502.58014,0.21755
3501.61577,0.21838
3500.65140,0.21931
3499.68704,0.22041
3498.72267,0.22149
3497.75830,0.22245
3496.79394,0.22335
3495.82957,0.22419
3494.86520,0.22489
3493.90084,0.22551
3492.93647,0.22632
3491.97210,0.22750
3491.00774,0.22885
3490.04337,0.22999
3489.07900,0.23090
3488.11464,0.23195
3487.15027,0.23326
3486.18590,0.23458
3485.22154,0.23575
3484.25717,0.23679
3483.29280,0.23765
3482.32844,0.23841
3481.36407,0.23918
3480.39970,0.24001
3479.43534,0.24104
3478.47097,0.24224
3477.50660,0.24323
3476.54223,0.24391
3475.57787,0.24460
3474.61350,0.24551
3473.64913,0.24653
3472.68477,0.24747
3471.72040,0.24841
3470.75603,0.24947
3469.79167,0.25054
3468.82730,0.25140
3467.86293,0.25208
3466.89857,0.25278
3465.93420,0.25378
3464.96983,0.25497
3464.00547,0.25592
3463.04110,0.25660
3462.07673,0.25728
3461.11237,0.25800
3460.14800,0.25869
3459.18363,0.25937
3458.21927,0.26008
3457.25490,0.26081
3456.29053,0.26162
3455.32617,0.26255
3454.36180,0.26345
3453.39743,0.26418
3452.43307,0.26488
3451.46870,0.26568
3450.50433,0.26651
3449.53997,0.26733
3448.57560,0.26807
3447.61123,0.26867
3446.64686,0.26931
3445.68250,0.27017
3444.71813,0.27107
3443.75376,0.27181
3442.78940,0.27244
3441.82503,0.27320
3440.86066,0.27421
3439.89630,0.27525
3438.93193,0.27597
3437.96756,0.27641
3437.00320,0.27688
3436.03883,0.27768
3435.07446,0.27869
3434.11010,0.27950
3433.14573,0.28002
3432.18136,0.28055
3431.21700,0.28123
3430.25263,0.28188
3429.28826,0.28244
3428.32390,0.28298
3427.35953,0.28345
3426.39516,0.28375
3425.43080,0.28411
3424.46643,0.28478
3423.50206,0.28565
3422.53770,0.28642
3421.57333,0.28695
3420.60896,0.28724
3419.64460,0.28745
3418.68023,0.28788
3417.71586,0.28862
3416.75149,0.28939
3415.78713,0.28990
3414.82276,0.29020
3413.85839,0.29058
3412.89403,0.29118
3411.92966,0.29177
3410.96529,0.29214
3410.00093,0.29238
3409.03656,0.29267
3408.07219,0.29297
3407.10783,0.29330
3406.14346,0.29365
3405.17909,0.29398
3404.21473,0.29431
3403.25036,0.29470
3402.28599,0.29504
3401.32163,0.29530
3400.35726,0.29559
3399.39289,0.29591
3398.42853,0.29597
3397.46416,0.29568
3396.49979,0.29542
3395.53543,0.29559
3394.57106,0.29612
3393.60669,0.29666
3392.64233,0.29697
3391.67796,0.29701
3390.71359,0.29697
3389.74922,0.29697
3388.78486,0.29697
3387.82049,0.29690
3386.85612,0.29671
3385.89176,0.29641
3384.92739,0.29622
3383.96302,0.29631
3382.99866,0.29642
3382.03429,0.29638
3381.06992,0.29633
3380.10556,0.29634
3379.14119,0.29634
3378.17682,0.29628
3377.21246,0.29611
3376.24809,0.29586
3375.28372,0.29565
3374.31936,0.29562
3373.35499,0.29566
3372.39062,0.29556
3371.42626,0.29524
3370.46189,0.29489
3369.49752,0.29471
3368.53316,0.29466
3367.56879,0.29456
3366.60442,0.29428
3365.64006,0.29378
3364.67569,0.29319
3363.71132,0.29279
3362.74696,0.29263
3361.78259,0.29247
3360.81822,0.29209
3359.85385,0.29154
3358.88949,0.29100
3357.92512,0.29058
3356.96075,0.29017
3355.99639,0.28960
3355.03202,0.28905
3354.06765,0.28871
3353.10329,0.28853
3352.13892,0.28827
3351.17455,0.28792
3350.21019,0.28758
3349.24582,0.28717
3348.28145,0.28663
3347.31709,0.28607
3346.35272,0.28557
3345.38835,0.28501
3344.42399,0.28432
3343.45962,0.28366
3342.49525,0.28320
3341.53089,0.28284
3340.56652,0.28247
3339.60215,0.28210
3338.63779,0.28166
3337.67342,0.28119
3336.70905,0.28068
3335.74469,0.28016
3334.78032,0.27970
3333.81595,0.27918
3332.85159,0.27845
3331.88722,0.27770
3330.92285,0.27719
3329.95848,0.27680
3328.99412,0.27640
3328.02975,0.27603
3327.06538,0.27563
3326.10102,0.27510
3325.13665,0.27451
3324.17228,0.27400
3323.20792,0.27355
3322.24355,0.27294
3321.27918,0.27214
3320.31482,0.27150
3319.35045,0.27119
3318.38608,0.27097
3317.42172,0.27057
3316.45735,0.26995
3315.49298,0.26928
3314.52862,0.26878
3313.56425,0.26843
3312.59988,0.26802
3311.63552,0.26739
3310.67115,0.26656
3309.70678,0.26583
3308.74242,0.26535
3307.77805,0.26504
3306.81368,0.26475
3305.84932,0.26430
3304.88495,0.26374
3303.92058,0.26324
3302.95621,0.26282
3301.99185,0.26227
3301.02748,0.26156
3300.06311,0.26091
3299.09875,0.26040
3298.13438,0.25982
3297.17001,0.25918
3296.20565,0.25879
3295.24128,0.25870
3294.27691,0.25852
3293.31255,0.25803
3292.34818,0.25742
3291.38381,0.25685
3290.41945,0.25628
3289.45508,0.25575
3288.49071,0.25532
3287.52635,0.25492
3286.56198,0.25452
3285.59761,0.25416
3284.63325,0.25378
3283.66888,0.25336
3282.70451,0.25298
3281.74015,0.25256
3280.77578,0.25192
3279.81141,0.25109
3278.84705,0.25041
3277.88268,0.25002
3276.91831,0.24972
3275.95395,0.24929
3274.98958,0.24882
3274.02521,0.24837
3273.06084,0.24786
3272.09648,0.24731
3271.13211,0.24689
3270.16774,0.24647
3269.20338,0.24587
3268.23901,0.24522
3267.27464,0.24466
3266.31028,0.24420
3265.34591,0.24370
3264.38154,0.24313
3263.41718,0.24266
3262.45281,0.24229
3261.48844,0.24187
3260.52408,0.24138
3259.55971,0.24091
3258.59534,0.24039
3257.63098,0.23977
3256.66661,0.23914
3255.70224,0.23859
3254.73788,0.23808
3253.77351,0.23752
3252.80914,0.23684
3251.84478,0.23611
3250.88041,0.23540
3249.91604,0.23474
3248.95168,0.23404
3247.98731,0.23316
3247.02294,0.23242
3246.05858,0.23205
3245.09421,0.23179
3244.12984,0.23138
3243.16547,0.23077
3242.20111,0.22995
3241.23674,0.22907
3240.27237,0.22832
3239.30801,0.22769
3238.34364,0.22709
3237.37927,0.22638
3236.41491,0.22546
3235.45054,0.22455
3234.48617,0.22387
3233.52181,0.22322
3232.55744,0.22241
3231.59307,0.22155
3230.62871,0.22068
3229.66434,0.21979
3228.69997,0.21889
3227.73561,0.21805
3226.77124,0.21731
3225.80687,0.21662
3224.84251,0.21584
3223.87814,0.21493
3222.91377,0.21393
3221.94941,0.21300
3220.98504,0.21214
3220.02067,0.21116
3219.05631,0.21002
3218.09194,0.20896
3217.12757,0.20806
3216.16320,0.20709
3215.19884,0.20592
3214.23447,0.20476
3213.27010,0.20377
3212.30574,0.20286
3211.34137,0.20182
3210.37700,0.20074
3209.41264,0.19981
3208.44827,0.19892
3207.48390,0.19799
3206.51954,0.19708
3205.55517,0.19628
3204.59080,0.19555
3203.62644,0.19472
3202.66207,0.19360
3201.69770,0.19229
3200.73334,0.19104
3199.76897,0.18995
3198.80460,0.18888
3197.84024,0.18776
3196.87587,0.18676
3195.91150,0.18581
3194.94714,0.18464
3193.98277,0.18337
3193.01840,0.18228
3192.05404,0.18130
3191.08967,0.18026
3190.12530,0.17924
3189.16094,0.17821
3188.19657,0.17709
3187.23220,0.17593
3186.26783,0.17482
3185.30347,0.17366
3184.33910,0.17242
3183.37473,0.17118
3182.41037,0.17008
3181.44600,0.16909
3180.48163,0.16809
3179.51727,0.16701
3178.55290,0.16589
3177.58853,0.16473
3176.62417,0.16350
3175.65980,0.16219
3174.69543,0.16097
3173.73107,0.15998
3172.76670,0.15903
3171.80233,0.15790
3170.83797,0.15668
3169.87360,0.15558
3168.90923,0.15466
3167.94487,0.15377
3166.98050,0.15273
3166.01613,0.15152
3165.05177,0.15036
3164.08740,0.14937
3163.12303,0.14841
3162.15867,0.14731
3161.19430,0.14618
3160.22993,0.14508
3159.26556,0.14382
3158.30120,0.14239
3157.33683,0.14106
3156.37246,0.13999
3155.40810,0.13900
3154.44373,0.13800
3153.47936,0.13709
3152.51500,0.13621
3151.55063,0.13518
3150.58626,0.13399
3149.62190,0.13286
3148.65753,0.13183
3147.69316,0.13086
3146.72880,0.12985
3145.76443,0.12876
3144.80006,0.12771
3143.83570,0.12681
3142.87133,0.12592
3141.90696,0.12488
3140.94260,0.12383
3139.97823,0.12284
3139.01386,0.12177
3138.04950,0.12060
3137.08513,0.11957
3136.12076,0.11864
3135.15640,0.11760
3134.19203,0.11652
3133.22766,0.11553
3132.26330,0.11466
3131.29893,0.11397
3130.33456,0.11325
3129.37019,0.11222
3128.40583,0.11103
3127.44146,0.10996
3126.47709,0.10901
3125.51273,0.10809
3124.54836,0.10716
3123.58399,0.10616
3122.61963,0.10513
3121.65526,0.10426
3120.69089,0.10368
3119.72653,0.10315
3118.76216,0.10235
3117.79779,0.10133
3116.83343,0.10043
3115.86906,0.09976
3114.90469,0.09912
3113.94033,0.09824
3112.97596,0.09722
3112.01159,0.09635
3111.04723,0.09561
3110.08286,0.09486
3109.11849,0.09402
3108.15413,0.09316
3107.18976,0.09233
3106.22539,0.09149
3105.26103,0.09063
3104.29666,0.08977
3103.33229,0.08893
3102.36793,0.08812
3101.40356,0.08742
3100.43919,0.08682
3099.47482,0.08621
3098.51046,0.08559
3097.54609,0.08502
3096.58172,0.08441
3095.61736,0.08364
3094.65299,0.08270
3093.68862,0.08178
3092.72426,0.08102
3091.75989,0.08033
3090.79552,0.07956
3089.83116,0.07881
3088.86679,0.07825
3087.90242,0.07774
3086.93806,0.07708
3085.97369,0.07630
3085.00932,0.07555
3084.04496,0.07490
3083.08059,0.07437
3082.11622,0.07384
3081.15186,0.07323
3080.18749,0.07259
3079.22312,0.07202
3078.25876,0.07149
3077.29439,0.07097
3076.33002,0.07035
3075.36566,0.06954
3074.40129,0.06872
3073.43692,0.06817
3072.47255,0.06794
3071.50819,0.06766
3070.54382,0.06711
3069.57945,0.06651
3068.61509,0.06606
3067.65072,0.06562
3066.68635,0.06511
3065.72199,0.06455
3064.75762,0.06392
3063.79325,0.06319
3062.82889,0.06259
3061.86452,0.06216
3060.90015,0.06168
3059.93579,0.06099
3058.97142,0.06030
3058.00705,0.05980
3057.04269,0.05938
3056.07832,0.05890
3055.11395,0.05843
3054.14959,0.05803
3053.18522,0.05766
3052.22085,0.05717
3051.25649,0.05667
3050.29212,0.05627
3049.32775,0.05591
3048.36339,0.05551
3047.39902,0.05512
3046.43465,0.05470
3045.47029,0.05424
3044.50592,0.05380
3043.54155,0.05344
3042.57718,0.05319
3041.61282,0.05290
3040.64845,0.05251
3039.68408,0.05215
3038.71972,0.05191
3037.75535,0.05169
3036.79098,0.05134
3035.82662,0.05090
3034.86225,0.05051
3033.89788,0.05027
3032.93352,0.05021
3031.96915,0.05024
3031.00478,0.05018
3030.04042,0.04999
3029.07605,0.04983
3028.11168,0.04983
3027.14732,0.04991
3026.18295,0.04998
3025.21858,0.05008
3024.25422,0.05036
3023.28985,0.05087
3022.32548,0.05153
3021.36112,0.05231
3020.39675,0.05324
3019.43238,0.05417
3018.46802,0.05504
3017.50365,0.05606
3016.53928,0.05737
3015.57492,0.05890
3014.61055,0.06053
3013.64618,0.06208
3012.68181,0.06340
3011.71745,0.06454
3010.75308,0.06552
3009.78871,0.06622
3008.82435,0.06654
3007.85998,0.06648
3006.89561,0.06608
3005.93125,0.06534
3004.96688,0.06434
3004.00251,0.06324
3003.03815,0.06216
3002.07378,0.06094
3001.10941,0.05954
3000.14505,0.05811
2999.18068,0.05670
2998.21631,0.05527
2997.25195,0.05391
2996.28758,0.05271
2995.32321,0.05172
2994.35885,0.05088
2993.39448,0.05016
2992.43011,0.04967
2991.46575,0.04941
2990.50138,0.04925
2989.53701,0.04912
2988.57265,0.04912
2987.60828,0.04937
2986.64391,0.04978
2985.67954,0.05022
2984.71518,0.05073
2983.75081,0.05130
2982.78644,0.05196
2981.82208,0.05289
2980.85771,0.05414
2979.89334,0.05553
2978.92898,0.05706
2977.96461,0.05872
2977.00024,0.06046
2976.03588,0.06238
2975.07151,0.06458
2974.10714,0.06707
2973.14278,0.06989
2972.17841,0.07300
2971.21404,0.07639
2970.24968,0.08013
2969.28531,0.08428
2968.32094,0.08884
2967.35658,0.09383
2966.39221,0.09906
2965.42784,0.10429
2964.46348,0.10946
2963.49911,0.11470
2962.53474,0.12008
2961.57038,0.12537
2960.60601,0.13033
2959.64164,0.13482
2958.67728,0.13877
2957.71291,0.14209
2956.74854,0.14474
2955.78417,0.14660
2954.81981,0.14748
2953.85544,0.14738
2952.89107,0.14649
2951.92671,0.14515
2950.96234,0.14386
2949.99797,0.14310
2949.03361,0.14309
2948.06924,0.14399
2947.10487,0.14592
2946.14051,0.14897
2945.17614,0.15308
2944.21177,0.15823
2943.24741,0.16441
2942.28304,0.17159
2941.31867,0.17971
2940.35431,0.18871
2939.38994,0.19859
2938.42557,0.20940
2937.46121,0.22117
2936.49684,0.23383
2935.53247,0.24721
2934.56811,0.26127
2933.60374,0.27595
2932.63937,0.29107
2931.67501,0.30636
2930.71064,0.32167
2929.74627,0.33682
2928.78191,0.35159
2927.81754,0.36579
2926.85317,0.37930
2925.88880,0.39180
2924.92444,0.40286
2923.96007,0.41203
2922.99570,0.41903
2922.03134,0.42373
2921.06697,0.42584
2920.10260,0.42503
2919.13824,0.42120
2918.17387,0.41445
2917.20950,0.40471
2916.24514,0.39173
2915.28077,0.37552
2914.31640,0.35669
2913.35204,0.33633
2912.38767,0.31578
2911.42330,0.29630
2910.45894,0.27862
2909.49457,0.26292
2908.53020,0.24908
2907.56584,0.23682
2906.60147,0.22583
2905.63710,0.21587
2904.67274,0.20678
2903.70837,0.19851
2902.74400,0.19088
2901.77964,0.18373
2900.81527,0.17709
2899.85090,0.17092
2898.88653,0.16507
2897.92217,0.15946
2896.95780,0.15408
2895.99343,0.14892
2895.02907,0.14393
2894.06470,0.13907
2893.10033,0.13427
2892.13597,0.12949
2891.17160,0.12483
2890.20723,0.12040
2889.24287,0.11616
2888.27850,0.11209
2887.31413,0.10822
2886.34977,0.10465
2885.38540,0.10155
2884.42103,0.09888
2883.45667,0.09650
2882.49230,0.09454
2881.52793,0.09316
2880.56357,0.09239
2879.59920,0.09230
2878.63483,0.09304
2877.67047,0.09468
2876.70610,0.09710
2875.74173,0.10011
2874.77737,0.10347
2873.81300,0.10685
2872.84863,0.10977
2871.88427,0.11185
2870.91990,0.11300
2869.95553,0.11359
2868.99116,0.11429
2868.02680,0.11568
2867.06243,0.11810
2866.09806,0.12188
2865.13370,0.12730
2864.16933,0.13448
2863.20496,0.14342
2862.24060,0.15402
2861.27623,0.16621
2860.31186,0.17980
2859.34750,0.19447
2858.38313,0.20998
2857.41876,0.22583
2856.45440,0.24137
2855.49003,0.25610
2854.52566,0.26937
2853.56130,0.28019
2852.59693,0.28757
2851.63256,0.29051
2850.66820,0.28779
2849.70383,0.27815
2848.73946,0.26146
2847.77510,0.23938
2846.81073,0.21456
2845.84636,0.18949
2844.88200,0.16598
2843.91763,0.14507
2842.95326,0.12717
2841.98889,0.11226
2841.02453,0.09998
2840.06016,0.08985
2839.09579,0.08153
2838.13143,0.07476
2837.16706,0.06917
2836.20269,0.06440
2835.23833,0.06025
2834.27396,0.05670
2833.30959,0.05366
2832.34523,0.05092
2831.38086,0.04836
2830.41649,0.04592
2829.45213,0.04362
2828.48776,0.04152
2827.52339,0.03962
2826.55903,0.03793
2825.59466,0.03637
2824.63029,0.03487
2823.66593,0.03349
2822.70156,0.03221
2821.73719,0.03098
2820.77283,0.02985
2819.80846,0.02889
2818.84409,0.02811
2817.87973,0.02736
2816.91536,0.02655
2815.95099,0.02571
2814.98663,0.02493
2814.02226,0.02422
2813.05789,0.02353
2812.09352,0.02293
2811.12916,0.02238
2810.16479,0.02178
2809.20042,0.02127
2808.23606,0.02088
2807.27169,0.02045
2806.30732,0.01993
2805.34296,0.01943
2804.37859,0.01895
2803.41422,0.01849
2802.44986,0.01815
2801.48549,0.01792
2800.52112,0.01761
2799.55676,0.01721
2798.59239,0.01692
2797.62802,0.01673
2796.66366,0.01646
2795.69929,0.01608
2794.73492,0.01570
2793.77056,0.01542
2792.80619,0.01521
2791.84182,0.01498
2790.87746,0.01479
2789.91309,0.01467
2788.94872,0.01450
2787.98436,0.01420
2787.01999,0.01386
2786.05562,0.01359
2785.09126,0.01333
2784.12689,0.01307
2783.16252,0.01288
2782.19815,0.01273
2781.23379,0.01261
2780.26942,0.01250
2779.30505,0.01236
2778.34069,0.01222
2777.37632,0.01206
2776.41195,0.01180
2775.44759,0.01156
2774.48322,0.01141
2773.51885,0.01125
2772.55449,0.01109
2771.59012,0.01103
2770.62575,0.01104
2769.66139,0.01099
2768.69702,0.01084
2767.73265,0.01067
2766.76829,0.01055
2765.80392,0.01050
2764.83955,0.01047
2763.87519,0.01045
2762.91082,0.01044
2761.94645,0.01039
2760.98209,0.01027
2760.01772,0.01014
2759.05335,0.01005
2758.08899,0.00998
2757.12462,0.00990
2756.16025,0.00976
2755.19588,0.00963
2754.23152,0.00959
2753.26715,0.00958
2752.30278,0.00955
2751.33842,0.00954
2750.37405,0.00950
2749.40968,0.00944
2748.44532,0.00941
2747.48095,0.00944
2746.51658,0.00951
2745.55222,0.00953
2744.58785,0.00947
2743.62348,0.00941
2742.65912,0.00939
2741.69475,0.00939
2740.73038,0.00937
2739.76602,0.00932
2738.80165,0.00926
2737.83728,0.00924
2736.87292,0.00928
2735.90855,0.00933
2734.94418,0.00937
2733.97982,0.00944
2733.01545,0.00949
2732.05108,0.00946
2731.08672,0.00941
2730.12235,0.00936
2729.15798,0.00927
2728.19362,0.00924
2727.22925,0.00929
2726.26488,0.00926
2725.30051,0.00910
2724.33615,0.00892
2723.37178,0.00883
2722.40741,0.00883
2721.44305,0.00883
2720.47868,0.00879
2719.51431,0.00863
2718.54995,0.00848
2717.58558,0.00847
2716.62121,0.00854
2715.65685,0.00852
2714.69248,0.00844
2713.72811,0.00838
2712.76375,0.00830
2711.79938,0.00817
2710.83501,0.00806
2709.87065,0.00798
2708.90628,0.00790
2707.94191,0.00786
2706.97755,0.00793
2706.01318,0.00802
2705.04881,0.00801
2704.08445,0.00791
2703.12008,0.00778
2702.15571,0.00773
2701.19135,0.00782
2700.22698,0.00789
2699.26261,0.00782
2698.29825,0.00778
2697.33388,0.00784
2696.36951,0.00795
2695.40514,0.00803
2694.44078,0.00807
2693.47641,0.00813
2692.51204,0.00821
2691.54768,0.00823
2690.58331,0.00816
2689.61894,0.00811
2688.65458,0.00813
2687.69021,0.00815
2686.72584,0.00813
2685.76148,0.00816
2684.79711,0.00827
2683.83274,0.00838
2682.86838,0.00845
2681.90401,0.00845
2680.93964,0.00837
2679.97528,0.00825
2679.01091,0.00814
2678.04654,0.00812
2677.08218,0.00821
2676.11781,0.00830
2675.15344,0.00829
2674.18908,0.00828
2673.22471,0.00829
2672.26034,0.00824
2671.29598,0.00822
2670.33161,0.00831
2669.36724,0.00833
2668.40287,0.00815
2667.43851,0.00792
2666.47414,0.00788
2665.50977,0.00795
2664.54541,0.00795
2663.58104,0.00786
2662.61667,0.00783
2661.65231,0.00784
2660.68794,0.00781
2659.72357,0.00775
2658.75921,0.00770
2657.79484,0.00767
2656.83047,0.00759
2655.86611,0.00747
2654.90174,0.00737
2653.93737,0.00733
2652.97301,0.00734
2652.00864,0.00730
2651.04427,0.00725
2650.07991,0.00724
2649.11554,0.00720
2648.15117,0.00708
2647.18681,0.00701
2646.22244,0.00702
2645.25807,0.00701
2644.29371,0.00695
2643.32934,0.00688
2642.36497,0.00686
2641.40061,0.00689
2640.43624,0.00701
2639.47187,0.00718
2638.50750,0.00725
2637.54314,0.00717
2636.57877,0.00699
2635.61440,0.00679
2634.65004,0.00669
2633.68567,0.00675
2632.72130,0.00685
2631.75694,0.00691
2630.79257,0.00694
2629.82820,0.00694
2628.86384,0.00686
2627.89947,0.00670
2626.93510,0.00658
2625.97074,0.00652
2625.00637,0.00653
2624.04200,0.00658
2623.07764,0.00662
2622.11327,0.00664
2621.14890,0.00661
2620.18454,0.00648
2619.22017,0.00628
2618.25580,0.00617
2617.29144,0.00618
2616.32707,0.00621
2615.36270,0.00621
2614.39834,0.00616
2613.43397,0.00611
2612.46960,0.00619
2611.50524,0.00633
2610.54087,0.00636
2609.57650,0.00631
2608.61213,0.00624
2607.64777,0.00619
2606.68340,0.00612
2605.71903,0.00597
2604.75467,0.00584
2603.79030,0.00593
2602.82593,0.00609
2601.86157,0.00610
2600.89720,0.00609
2599.93283,0.00612
2598.96847,0.00614
2598.00410,0.00612
2597.03973,0.00604
2596.07537,0.00587
2595.11100,0.00574
2594.14663,0.00573
2593.18227,0.00578
2592.21790,0.00582
2591.25353,0.00580
2590.28917,0.00575
2589.32480,0.00578
2588.36043,0.00585
2587.39607,0.00583
2586.43170,0.00567
2585.46733,0.00560
2584.50297,0.00569
2583.53860,0.00571
2582.57423,0.00560
2581.60986,0.00551
2580.64550,0.00548
2579.68113,0.00546
2578.71676,0.00541
2577.75240,0.00540
2576.78803,0.00547
2575.82366,0.00548
2574.85930,0.00543
2573.89493,0.00537
2572.93056,0.00531
2571.96620,0.00531
2571.00183,0.00537
2570.03746,0.00544
2569.07310,0.00547
2568.10873,0.00551
2567.14436,0.00571
2566.18000,0.00601
2565.21563,0.00614
2564.25126,0.00601
2563.28690,0.00577
2562.32253,0.00562
2561.35816,0.00569
2560.39380,0.00581
2559.42943,0.00582
2558.46506,0.00576
2557.50070,0.00572
2556.53633,0.00564
2555.57196,0.00555
2554.60760,0.00553
2553.64323,0.00550
2552.67886,0.00535
2551.71449,0.00523
2550.75013,0.00532
2549.78576,0.00547
2548.82139,0.00547
2547.85703,0.00536
2546.89266,0.00529
2545.92829,0.00531
2544.96393,0.00535
2543.99956,0.00538
2543.03519,0.00549
2542.07083,0.00561
2541.10646,0.00555
2540.14209,0.00531
2539.17773,0.00515
2538.21336,0.00512
2537.24899,0.00510
2536.28463,0.00517
2535.32026,0.00530
2534.35589,0.00532
2533.39153,0.00532
2532.42716,0.00545
2531.46279,0.00564
2530.49843,0.00568
2529.53406,0.00559
2528.56969,0.00555
2527.60533,0.00556
2526.64096,0.00554
2525.67659,0.00540
2524.71223,0.00523
2523.74786,0.00525
2522.78349,0.00546
2521.81912,0.00564
2520.85476,0.00570
2519.89039,0.00566
2518.92602,0.00559
2517.96166,0.00556
2516.99729,0.00549
2516.03292,0.00537
2515.06856,0.00533
2514.10419,0.00541
2513.13982,0.00548
2512.17546,0.00548
2511.21109,0.00547
2510.24672,0.00545
2509.28236,0.00543
2508.31799,0.00543
2507.35362,0.00536
2506.38926,0.00530
2505.42489,0.00536
2504.46052,0.00543
2503.49616,0.00539
2502.53179,0.00537
2501.56742,0.00549
2500.60306,0.00556
2499.63869,0.00546
2498.67432,0.00537
2497.70996,0.00536
2496.74559,0.00538
2495.78122,0.00544
2494.81685,0.00554
2493.85249,0.00565
2492.88812,0.00564
2491.92375,0.00548
2490.95939,0.00533
2489.99502,0.00530
2489.03065,0.00544
2488.06629,0.00561
2487.10192,0.00569
2486.13755,0.00575
2485.17319,0.00577
2484.20882,0.00577
2483.24445,0.00574
2482.28009,0.00570
2481.31572,0.00564
2480.35135,0.00559
2479.38699,0.00556
2478.42262,0.00548
2477.45825,0.00536
2476.49389,0.00536
2475.52952,0.00547
2474.56515,0.00556
2473.60079,0.00558
2472.63642,0.00552
2471.67205,0.00548
2470.70769,0.00550
2469.74332,0.00559
2468.77895,0.00564
2467.81459,0.00561
2466.85022,0.00562
2465.88585,0.00571
2464.92148,0.00580
2463.95712,0.00578
2462.99275,0.00567
2462.02838,0.00565
2461.06402,0.00574
2460.09965,0.00579
2459.13528,0.00583
2458.17092,0.00597
2457.20655,0.00609
2456.24218,0.00611
2455.27782,0.00607
2454.31345,0.00604
2453.34908,0.00603
2452.38472,0.00601
2451.42035,0.00594
2450.45598,0.00585
2449.49162,0.00584
2448.52725,0.00599
2447.56288,0.00620
2446.59852,0.00636
2445.63415,0.00640
2444.66978,0.00633
2443.70542,0.00626
2442.74105,0.00623
2441.77668,0.00621
2440.81232,0.00620
2439.84795,0.00622
2438.88358,0.00630
2437.91921,0.00637
2436.95485,0.00628
2435.99048,0.00614
2435.02611,0.00617
2434.06175,0.00627
2433.09738,0.00617
2432.13301,0.00600
2431.16865,0.00601
2430.20428,0.00618
2429.23991,0.00633
2428.27555,0.00635
2427.31118,0.00639
2426.34681,0.00650
2425.38245,0.00653
2424.41808,0.00645
2423.45371,0.00637
2422.48935,0.00639
2421.52498,0.00650
2420.56061,0.00661
2419.59625,0.00667
2418.63188,0.00665
2417.66751,0.00657
2416.70315,0.00647
2415.73878,0.00648
2414.77441,0.00664
2413.81005,0.00681
2412.84568,0.00682
2411.88131,0.00669
2410.91695,0.00661
2409.95258,0.00668
2408.98821,0.00682
2408.02384,0.00691
2407.05948,0.00692
2406.09511,0.00689
2405.13074,0.00686
2404.16638,0.00690
2403.20201,0.00700
2402.23764,0.00709
2401.27328,0.00715
2400.30891,0.00714
2399.34454,0.00704
2398.38018,0.00693
2397.41581,0.00689
2396.45144,0.00692
2395.48708,0.00699
2394.52271,0.00702
2393.55834,0.00702
2392.59398,0.00701
2391.62961,0.00708
2390.66524,0.00721
2389.70088,0.00733
2388.73651,0.00740
2387.77214,0.00746
2386.80778,0.00756
2385.84341,0.00768
2384.87904,0.00778
2383.91468,0.00779
2382.95031,0.00771
2381.98594,0.00757
2381.02158,0.00750
2380.05721,0.00746
2379.09284,0.00745
2378.12847,0.00755
2377.16411,0.00769
2376.19974,0.00772
2375.23537,0.00767
2374.27101,0.00775
2373.30664,0.00764
2372.34227,0.00733
2371.37791,0.00715
2370.41354,0.00698
2369.44917,0.00674
2368.48481,0.00663
2367.52044,0.00671
2366.55607,0.00705
2365.59171,0.00721
2364.62734,0.00697
2363.66297,0.00652
2362.69861,0.00620
2361.73424,0.00647
2360.76987,0.00692
2359.80551,0.00695
2358.84114,0.00696
2357.87677,0.00731
2356.91241,0.00773
2355.94804,0.00783
2354.98367,0.00775
2354.01931,0.00777
2353.05494,0.00755
2352.09057,0.00733
2351.12620,0.00800
2350.16184,0.00945
2349.19747,0.01060
2348.23310,0.01008
2347.26874,0.00851
2346.30437,0.00741
2345.34000,0.00728
2344.37564,0.00778
2343.41127,0.00827
2342.44690,0.00820
2341.48254,0.00817
2340.51817,0.00838
2339.55380,0.00834
2338.58944,0.00837
2337.62507,0.00852
2336.66070,0.00861
2335.69634,0.00840
2334.73197,0.00845
2333.76760,0.00863
2332.80324,0.00856
2331.83887,0.00844
2330.87450,0.00846
2329.91014,0.00891
2328.94577,0.00899
2327.98140,0.00911
2327.01704,0.00939
2326.05267,0.00981
2325.08830,0.00951
2324.12394,0.00920
2323.15957,0.00883
2322.19520,0.00901
2321.23083,0.00871
2320.26647,0.00876
2319.30210,0.00876
2318.33773,0.00915
2317.37337,0.00910
2316.40900,0.00934
2315.44463,0.00939
2314.48027,0.00954
2313.51590,0.00934
2312.55153,0.00934
2311.58717,0.00915
2310.62280,0.00922
2309.65843,0.00952
2308.69407,0.00966
2307.72970,0.00988
2306.76533,0.00964
2305.80097,0.00970
2304.83660,0.00946
2303.87223,0.00964
2302.90787,0.00963
2301.94350,0.00967
2300.97913,0.00964
2300.01477,0.00963
2299.05040,0.00974
2298.08603,0.00971
2297.12167,0.00987
2296.15730,0.00974
2295.19293,0.00980
2294.22857,0.00983
2293.26420,0.00978
2292.29983,0.00970
2291.33546,0.00963
2290.37110,0.00974
2289.40673,0.00974
2288.44236,0.00977
2287.47800,0.00972
2286.51363,0.00969
2285.54926,0.00972
2284.58490,0.00966
2283.62053,0.00961
2282.65616,0.00968
2281.69180,0.00995
2280.72743,0.01013
2279.76306,0.01002
2278.79870,0.00981
2277.83433,0.00969
2276.86996,0.00978
2275.90560,0.00997
2274.94123,0.01005
2273.97686,0.01001
2273.01250,0.01012
2272.04813,0.01030
2271.08376,0.01039
2270.11940,0.01042
2269.15503,0.01048
2268.19066,0.01044
2267.22630,0.01035
2266.26193,0.01033
2265.29756,0.01047
2264.33319,0.01048
2263.36883,0.01021
2262.40446,0.01009
2261.44009,0.01017
2260.47573,0.01039
2259.51136,0.01053
2258.54699,0.01066
2257.58263,0.01060
2256.61826,0.01049
2255.65389,0.01023
2254.68953,0.01014
2253.72516,0.01016
2252.76079,0.01038
2251.79643,0.01051
2250.83206,0.01065
2249.86769,0.01078
2248.90333,0.01095
2247.93896,0.01095
2246.97459,0.01081
2246.01023,0.01078
2245.04586,0.01088
2244.08149,0.01095
2243.11713,0.01100
2242.15276,0.01110
2241.18839,0.01108
2240.22403,0.01083
2239.25966,0.01053
2238.29529,0.01038
2237.33093,0.01031
2236.36656,0.01032
2235.40219,0.01049
2234.43782,0.01077
2233.47346,0.01101
2232.50909,0.01111
2231.54472,0.01112
2230.58036,0.01125
2229.61599,0.01155
2228.65162,0.01181
2227.68726,0.01186
2226.72289,0.01173
2225.75852,0.01160
2224.79416,0.01154
2223.82979,0.01147
2222.86542,0.01126
2221.90106,0.01111
2220.93669,0.01123
2219.97232,0.01138
2219.00796,0.01149
2218.04359,0.01170
2217.07922,0.01173
2216.11486,0.01161
2215.15049,0.01167
2214.18612,0.01176
2213.22176,0.01164
2212.25739,0.01157
2211.29302,0.01161
2210.32866,0.01165
2209.36429,0.01183
2208.39992,0.01204
2207.43556,0.01208
2206.47119,0.01201
2205.50682,0.01198
2204.54245,0.01187
2203.57809,0.01165
2202.61372,0.01153
2201.64935,0.01161
2200.68499,0.01178
2199.72062,0.01182
2198.75625,0.01173
2197.79189,0.01177
2196.82752,0.01191
2195.86315,0.01194
2194.89879,0.01190
2193.93442,0.01195
2192.97005,0.01220
2192.00569,0.01242
2191.04132,0.01244
2190.07695,0.01237
2189.11259,0.01229
2188.14822,0.01241
2187.18385,0.01276
2186.21949,0.01292
2185.25512,0.01280
2184.29075,0.01261
2183.32639,0.01242
2182.36202,0.01250
2181.39765,0.01284
2180.43329,0.01295
2179.46892,0.01282
2178.50455,0.01272
2177.54018,0.01275
2176.57582,0.01275
2175.61145,0.01265
2174.64708,0.01261
2173.68272,0.01282
2172.71835,0.01306
2171.75398,0.01293
2170.78962,0.01269
2169.82525,0.01296
2168.86088,0.01366
2167.89652,0.01408
2166.93215,0.01393
2165.96778,0.01353
2165.00342,0.01304
2164.03905,0.01249
2163.07468,0.01203
2162.11032,0.01191
2161.14595,0.01223
2160.18158,0.01283
2159.21722,0.01323
2158.25285,0.01311
2157.28848,0.01297
2156.32412,0.01319
2155.35975,0.01321
2154.39538,0.01290
2153.43102,0.01279
2152.46665,0.01289
2151.50228,0.01290
2150.53792,0.01296
2149.57355,0.01321
2148.60918,0.01346
2147.64481,0.01363
2146.68045,0.01388
2145.71608,0.01403
2144.75171,0.01392
2143.78735,0.01379
2142.82298,0.01369
2141.85861,0.01350
2140.89425,0.01335
2139.92988,0.01340
2138.96551,0.01357
2138.00115,0.01376
2137.03678,0.01403
2136.07241,0.01420
2135.10805,0.01394
2134.14368,0.01361
2133.17931,0.01361
2132.21495,0.01363
2131.25058,0.01341
2130.28621,0.01327
2129.32185,0.01341
2128.35748,0.01364
2127.39311,0.01380
2126.42875,0.01383
2125.46438,0.01381
2124.50001,0.01381
2123.53565,0.01380
2122.57128,0.01381
2121.60691,0.01397
2120.64254,0.01415
2119.67818,0.01421
2118.71381,0.01425
2117.74944,0.01437
2116.78508,0.01438
2115.82071,0.01419
2114.85634,0.01401
2113.89198,0.01394
2112.92761,0.01397
2111.96324,0.01396
2110.99888,0.01390
2110.03451,0.01392
2109.07014,0.01401
2108.10578,0.01410
2107.14141,0.01413
2106.17704,0.01402
2105.21268,0.01373
2104.24831,0.01351
2103.28394,0.01357
2102.31958,0.01383
2101.35521,0.01399
2100.39084,0.01397
2099.42648,0.01393
2098.46211,0.01396
2097.49774,0.01404
2096.53338,0.01418
2095.56901,0.01428
2094.60464,0.01425
2093.64028,0.01417
2092.67591,0.01415
2091.71154,0.01413
2090.74717,0.01408
2089.78281,0.01400
2088.81844,0.01394
2087.85407,0.01395
2086.88971,0.01402
2085.92534,0.01405
2084.96097,0.01393
2083.99661,0.01376
2083.03224,0.01371
2082.06787,0.01382
2081.10351,0.01396
2080.13914,0.01405
2079.17477,0.01406
2078.21041,0.01397
2077.24604,0.01380
2076.28167,0.01357
2075.31731,0.01340
2074.35294,0.01337
2073.38857,0.01340
2072.42421,0.01334
2071.45984,0.01321
2070.49547,0.01319
2069.53111,0.01324
2068.56674,0.01329
2067.60237,0.01338
2066.63801,0.01348
2065.67364,0.01350
2064.70927,0.01344
2063.74491,0.01334
2062.78054,0.01325
2061.81617,0.01329
2060.85180,0.01340
2059.88744,0.01346
2058.92307,0.01353
2057.95870,0.01353
2056.99434,0.01347
2056.02997,0.01351
2055.06560,0.01357
2054.10124,0.01339
2053.13687,0.01310
2052.17250,0.01297
2051.20814,0.01294
2050.24377,0.01284
2049.27940,0.01282
2048.31504,0.01293
2047.35067,0.01293
2046.38630,0.01262
2045.42194,0.01230
2044.45757,0.01227
2043.49320,0.01236
2042.52884,0.01225
2041.56447,0.01212
2040.60010,0.01228
2039.63574,0.01245
2038.67137,0.01231
2037.70700,0.01216
2036.74264,0.01224
2035.77827,0.01225
2034.81390,0.01193
2033.84953,0.01146
2032.88517,0.01127
2031.92080,0.01137
2030.95643,0.01146
2029.99207,0.01150
2029.02770,0.01160
2028.06333,0.01165
2027.09897,0.01163
2026.13460,0.01164
2025.17023,0.01158
2024.20587,0.01140
2023.24150,0.01126
2022.27713,0.01126
2021.31277,0.01136
2020.34840,0.01145
2019.38403,0.01136
2018.41967,0.01111
2017.45530,0.01094
2016.49093,0.01099
2015.52657,0.01103
2014.56220,0.01097
2013.59783,0.01098
2012.63347,0.01107
2011.66910,0.01114
2010.70473,0.01114
2009.74037,0.01114
2008.77600,0.01117
2007.81163,0.01099
2006.84727,0.01040
2005.88290,0.00985
2004.91853,0.00990
2003.95416,0.01024
2002.98980,0.01028
2002.02543,0.01015
2001.06106,0.01027
2000.09670,0.01052
1999.13233,0.01055
1998.16796,0.01045
1997.20360,0.01039
1996.23923,0.01028
1995.27486,0.01014
1994.31050,0.01020
1993.34613,0.01043
1992.38176,0.01052
1991.41740,0.01029
1990.45303,0.00998
1989.48866,0.00987
1988.52430,0.00996
1987.55993,0.01000
1986.59556,0.00985
1985.63120,0.00966
1984.66683,0.00959
1983.70246,0.00964
1982.73810,0.00986
1981.77373,0.01001
1980.80936,0.00984
1979.84500,0.00948
1978.88063,0.00925
1977.91626,0.00930
1976.95190,0.00961
1975.98753,0.00999
1975.02316,0.01012
1974.05879,0.00986
1973.09443,0.00937
1972.13006,0.00895
1971.16569,0.00879
1970.20133,0.00895
1969.23696,0.00920
1968.27259,0.00929
1967.30823,0.00931
1966.34386,0.00938
1965.37949,0.00942
1964.41513,0.00937
1963.45076,0.00924
1962.48639,0.00908
1961.52203,0.00892
1960.55766,0.00886
1959.59329,0.00897
1958.62893,0.00910
1957.66456,0.00907
1956.70019,0.00895
1955.73583,0.00892
1954.77146,0.00889
1953.80709,0.00871
1952.84273,0.00850
1951.87836,0.00849
1950.91399,0.00862
1949.94963,0.00870
1948.98526,0.00877
1948.02089,0.00891
1947.05652,0.00901
1946.09216,0.00894
1945.12779,0.00877
1944.16342,0.00859
1943.19906,0.00843
1942.23469,0.00836
1941.27032,0.00854
1940.30596,0.00888
1939.34159,0.00907
1938.37722,0.00900
1937.41286,0.00891
1936.44849,0.00890
1935.48412,0.00886
1934.51976,0.00876
1933.55539,0.00871
1932.59102,0.00870
1931.62666,0.00867
1930.66229,0.00860
1929.69792,0.00850
1928.73356,0.00846
1927.76919,0.00848
1926.80482,0.00848
1925.84046,0.00847
1924.87609,0.00850
1923.91172,0.00855
1922.94736,0.00853
1921.98299,0.00844
1921.01862,0.00837
1920.05426,0.00826
1919.08989,0.00807
1918.12552,0.00797
1917.16115,0.00822
1916.19679,0.00861
1915.23242,0.00875
1914.26805,0.00863
1913.30369,0.00848
1912.33932,0.00844
1911.37495,0.00846
1910.41059,0.00851
1909.44622,0.00853
1908.48185,0.00846
1907.51749,0.00836
1906.55312,0.00833
1905.58875,0.00835
1904.62439,0.00837
1903.66002,0.00834
1902.69565,0.00828
1901.73129,0.00824
1900.76692,0.00823
1899.80255,0.00820
1898.83819,0.00819
1897.87382,0.00825
1896.90945,0.00828
1895.94509,0.00819
1894.98072,0.00809
1894.01635,0.00814
1893.05199,0.00822
1892.08762,0.00818
1891.12325,0.00808
1890.15889,0.00810
1889.19452,0.00822
1888.23015,0.00827
1887.26578,0.00818
1886.30142,0.00807
1885.33705,0.00801
1884.37268,0.00806
1883.40832,0.00821
1882.44395,0.00835
1881.47958,0.00838
1880.51522,0.00833
1879.55085,0.00829
1878.58648,0.00830
1877.62212,0.00831
1876.65775,0.00832
1875.69338,0.00834
1874.72902,0.00838
1873.76465,0.00838
1872.80028,0.00836
1871.83592,0.00835
1870.87155,0.00834
1869.90718,0.00831
1868.94282,0.00830
1867.97845,0.00835
1867.01408,0.00845
1866.04972,0.00857
1865.08535,0.00867
1864.12098,0.00871
1863.15662,0.00870
1862.19225,0.00870
1861.22788,0.00872
1860.26351,0.00871
1859.29915,0.00865
1858.33478,0.00859
1857.37041,0.00859
1856.40605,0.00862
1855.44168,0.00863
1854.47731,0.00864
1853.51295,0.00868
1852.54858,0.00876
1851.58421,0.00884
1850.61985,0.00886
1849.65548,0.00881
1848.69111,0.00873
1847.72675,0.00866
1846.76238,0.00867
1845.79801,0.00877
1844.83365,0.00889
1843.86928,0.00897
1842.90491,0.00901
1841.94055,0.00907
1840.97618,0.00917
1840.01181,0.00929
1839.04745,0.00938
1838.08308,0.00941
1837.11871,0.00940
1836.15435,0.00940
1835.18998,0.00944
1834.22561,0.00949
1833.26125,0.00951
1832.29688,0.00950
1831.33251,0.00951
1830.36814,0.00953
1829.40378,0.00958
1828.43941,0.00969
1827.47504,0.00985
1826.51068,0.01000
1825.54631,0.01006
1824.58194,0.01006
1823.61758,0.01002
1822.65321,0.01001
1821.68884,0.01006
1820.72448,0.01019
1819.76011,0.01036
1818.79574,0.01050
1817.83138,0.01057
1816.86701,0.01059
1815.90264,0.01062
1814.93828,0.01069
1813.97391,0.01081
1813.00954,0.01097
1812.04518,0.01111
1811.08081,0.01121
1810.11644,0.01129
1809.15208,0.01140
1808.18771,0.01153
1807.22334,0.01165
1806.25898,0.01175
1805.29461,0.01183
1804.33024,0.01194
1803.36588,0.01206
1802.40151,0.01218
1801.43714,0.01228
1800.47277,0.01237
1799.50841,0.01250
1798.54404,0.01267
1797.57967,0.01284
1796.61531,0.01300
1795.65094,0.01318
1794.68657,0.01335
1793.72221,0.01348
1792.75784,0.01359
1791.79347,0.01373
1790.82911,0.01393
1789.86474,0.01417
1788.90037,0.01442
1787.93601,0.01464
1786.97164,0.01486
1786.00727,0.01510
1785.04291,0.01537
1784.07854,0.01567
1783.11417,0.01599
1782.14981,0.01630
1781.18544,0.01662
1780.22107,0.01698
1779.25671,0.01739
1778.29234,0.01783
1777.32797,0.01827
1776.36361,0.01873
1775.39924,0.01922
1774.43487,0.01975
1773.47050,0.02037
1772.50614,0.02113
1771.54177,0.02205
1770.57740,0.02309
1769.61304,0.02426
1768.64867,0.02564
1767.68430,0.02728
1766.71994,0.02916
1765.75557,0.03130
1764.79120,0.03382
1763.82684,0.03689
1762.86247,0.04074
1761.89810,0.04557
1760.93374,0.05122
1759.96937,0.05747
1759.00500,0.06454
1758.04064,0.07287
1757.07627,0.08275
1756.11190,0.09381
1755.14754,0.10536
1754.18317,0.11718
1753.21880,0.12952
1752.25444,0.14286
1751.29007,0.15723
1750.32570,0.17156
1749.36134,0.18485
1748.39697,0.19712
1747.43260,0.20849
1746.46824,0.21890
1745.50387,0.22836
1744.53950,0.23678
1743.57513,0.24380
1742.61077,0.24858
1741.64640,0.24988
1740.68203,0.24634
1739.71767,0.23746
1738.75330,0.22469
1737.78893,0.21038
1736.82457,0.19582
1735.86020,0.18077
1734.89583,0.16426
1733.93147,0.14694
1732.96710,0.13217
1732.00273,0.12205
1731.03837,0.11577
1730.07400,0.11182
1729.10963,0.10921
1728.14527,0.10698
1727.18090,0.10397
1726.21653,0.09928
1725.25217,0.09282
1724.28780,0.08526
1723.32343,0.07763
1722.35907,0.07092
1721.39470,0.06560
1720.43033,0.06159
1719.46597,0.05840
1718.50160,0.05556
1717.53723,0.05303
1716.57286,0.05108
1715.60850,0.04972
1714.64413,0.04874
1713.67976,0.04796
1712.71540,0.04735
1711.75103,0.04689
1710.78666,0.04654
1709.82230,0.04629
1708.85793,0.04614
1707.89356,0.04608
1706.92920,0.04610
1705.96483,0.04620
1705.00046,0.04637
1704.03610,0.04663
1703.07173,0.04694
1702.10736,0.04725
1701.14300,0.04753
1700.17863,0.04783
1699.21426,0.04816
1698.24990,0.04848
1697.28553,0.04878
1696.32116,0.04908
1695.35680,0.04943
1694.39243,0.04984
1693.42806,0.05030
1692.46370,0.05080
1691.49933,0.05134
1690.53496,0.05190
1689.57060,0.05249
1688.60623,0.05310
1687.64186,0.05368
1686.67749,0.05421
1685.71313,0.05474
1684.74876,0.05534
1683.78439,0.05608
1682.82003,0.05688
1681.85566,0.05768
1680.89129,0.05846
1679.92693,0.05928
1678.96256,0.06011
1677.99819,0.06095
1677.03383,0.06177
1676.06946,0.06261
1675.10509,0.06350
1674.14073,0.06440
1673.17636,0.06526
1672.21199,0.06607
1671.24763,0.06689
1670.28326,0.06777
1669.31889,0.06875
1668.35453,0.06981
1667.39016,0.07084
1666.42579,0.07181
1665.46143,0.07272
1664.49706,0.07363
1663.53269,0.07458
1662.56833,0.07561
1661.60396,0.07668
1660.63959,0.07772
1659.67523,0.07871
1658.71086,0.07965
1657.74649,0.08057
1656.78212,0.08143
1655.81776,0.08222
1654.85339,0.08291
1653.88902,0.08356
1652.92466,0.08431
1651.96029,0.08516
1650.99592,0.08598
1650.03156,0.08663
1649.06719,0.08709
1648.10282,0.08739
1647.13846,0.08760
1646.17409,0.08776
1645.20972,0.08791
1644.24536,0.08805
1643.28099,0.08810
1642.31662,0.08806
1641.35226,0.08793
1640.38789,0.08774
1639.42352,0.08753
1638.45916,0.08728
1637.49479,0.08694
1636.53042,0.08648
1635.56606,0.08588
1634.60169,0.08525
1633.63732,0.08468
1632.67296,0.08412
1631.70859,0.08347
1630.74422,0.08272
1629.77985,0.08191
1628.81549,0.08101
1627.85112,0.08004
1626.88675,0.07905
1625.92239,0.07809
1624.95802,0.07708
1623.99365,0.07594
1623.02929,0.07468
1622.06492,0.07348
1621.10055,0.07237
1620.13619,0.07131
1619.17182,0.07023
1618.20745,0.06902
1617.24309,0.06761
1616.27872,0.06607
1615.31435,0.06468
1614.34999,0.06350
1613.38562,0.06240
1612.42125,0.06127
1611.45689,0.06007
1610.49252,0.05883
1609.52815,0.05758
1608.56379,0.05633
1607.59942,0.05515
1606.63505,0.05404
1605.67069,0.05300
1604.70632,0.05199
1603.74195,0.05097
1602.77759,0.04996
1601.81322,0.04898
1600.84885,0.04806
1599.88448,0.04718
1598.92012,0.04634
1597.95575,0.04553
1596.99138,0.04474
1596.02702,0.04397
1595.06265,0.04322
1594.09828,0.04250
1593.13392,0.04182
1592.16955,0.04116
1591.20518,0.04053
1590.24082,0.03993
1589.27645,0.03934
1588.31208,0.03879
1587.34772,0.03827
1586.38335,0.03778
1585.41898,0.03729
1584.45462,0.03680
1583.49025,0.03631
1582.52588,0.03584
1581.56152,0.03540
1580.59715,0.03499
1579.63278,0.03462
1578.66842,0.03426
1577.70405,0.03390
1576.73968,0.03349
1575.77532,0.03308
1574.81095,0.03275
1573.84658,0.03251
1572.88222,0.03228
1571.91785,0.03202
1570.95348,0.03170
1569.98911,0.03135
1569.02475,0.03104
1568.06038,0.03079
1567.09601,0.03055
1566.13165,0.03031
1565.16728,0.03006
1564.20291,0.02983
1563.23855,0.02961
1562.27418,0.02938
1561.30981,0.02910
1560.34545,0.02875
1559.38108,0.02839
1558.41671,0.02815
1557.45235,0.02803
1556.48798,0.02797
1555.52361,0.02788
1554.55925,0.02772
1553.59488,0.02755
1552.63051,0.02740
1551.66615,0.02726
1550.70178,0.02709
1549.73741,0.02692
1548.77305,0.02678
1547.80868,0.02664
1546.84431,0.02651
1545.87995,0.02636
1544.91558,0.02622
1543.95121,0.02611
1542.98684,0.02600
1542.02248,0.02586
1541.05811,0.02569
1540.09374,0.02553
1539.12938,0.02544
1538.16501,0.02544
1537.20064,0.02549
1536.23628,0.02551
1535.27191,0.02546
1534.30754,0.02535
1533.34318,0.02522
1532.37881,0.02512
1531.41444,0.02506
1530.45008,0.02501
1529.48571,0.02494
1528.52134,0.02485
1527.55698,0.02475
1526.59261,0.02465
1525.62824,0.02454
1524.66388,0.02444
1523.69951,0.02433
1522.73514,0.02421
1521.77078,0.02408
1520.80641,0.02398
1519.84204,0.02394
1518.87768,0.02391
1517.91331,0.02384
1516.94894,0.02375
1515.98458,0.02367
1515.02021,0.02364
1514.05584,0.02362
1513.09147,0.02358
1512.12711,0.02351
1511.16274,0.02342
1510.19837,0.02333
1509.23401,0.02325
1508.26964,0.02315
1507.30527,0.02304
1506.34091,0.02298
1505.37654,0.02301
1504.41217,0.02309
1503.44781,0.02316
1502.48344,0.02321
1501.51907,0.02322
1500.55471,0.02320
1499.59034,0.02317
1498.62597,0.02314
1497.66161,0.02312
1496.69724,0.02313
1495.73287,0.02315
1494.76851,0.02319
1493.80414,0.02323
1492.83977,0.02327
1491.87541,0.02332
1490.91104,0.02337
1489.94667,0.02345
1488.98231,0.02355
1488.01794,0.02366
1487.05357,0.02381
1486.08921,0.02400
1485.12484,0.02425
1484.16047,0.02452
1483.19610,0.02482
1482.23174,0.02517
1481.26737,0.02560
1480.30300,0.02613
1479.33864,0.02681
1478.37427,0.02773
1477.40990,0.02905
1476.44554,0.03094
1475.48117,0.03344
1474.51680,0.03657
1473.55244,0.04059
1472.58807,0.04572
1471.62370,0.05178
1470.65934,0.05841
1469.69497,0.06528
1468.73060,0.07195
1467.76624,0.07765
1466.80187,0.08158
1465.83750,0.08339
1464.87314,0.08322
1463.90877,0.08172
1462.94440,0.07969
1461.98004,0.07772
1461.01567,0.07612
1460.05130,0.07502
1459.08694,0.07435
1458.12257,0.07380
1457.15820,0.07299
1456.19383,0.07165
1455.22947,0.06977
1454.26510,0.06747
1453.30073,0.06491
1452.33637,0.06234
1451.37200,0.06004
1450.40763,0.05815
1449.44327,0.05669
1448.47890,0.05551
1447.51453,0.05452
1446.55017,0.05367
1445.58580,0.05288
1444.62143,0.05211
1443.65707,0.05133
1442.69270,0.05058
1441.72833,0.04987
1440.76397,0.04920
1439.79960,0.04853
1438.83523,0.04784
1437.87087,0.04706
1436.90650,0.04618
1435.94213,0.04529
1434.97777,0.04452
1434.01340,0.04382
1433.04903,0.04311
1432.08467,0.04233
1431.12030,0.04147
1430.15593,0.04052
1429.19157,0.03954
1428.22720,0.03864
1427.26283,0.03787
1426.29846,0.03726
1425.33410,0.03686
1424.36973,0.03672
1423.40536,0.03686
1422.44100,0.03726
1421.47663,0.03783
1420.51226,0.03854
1419.54790,0.03941
1418.58353,0.04038
1417.61916,0.04128
1416.65480,0.04201
1415.69043,0.04249
1414.72606,0.04261
1413.76170,0.04225
1412.79733,0.04132
1411.83296,0.03991
1410.86860,0.03828
1409.90423,0.03673
1408.93986,0.03549
1407.97550,0.03465
1407.01113,0.03418
1406.04676,0.03405
1405.08240,0.03416
1404.11803,0.03443
1403.15366,0.03478
1402.18930,0.03514
1401.22493,0.03550
1400.26056,0.03592
1399.29619,0.03645
1398.33183,0.03715
1397.36746,0.03801
1396.40309,0.03897
1395.43873,0.04000
1394.47436,0.04096
1393.50999,0.04166
1392.54563,0.04197
1391.58126,0.04193
1390.61689,0.04168
1389.65253,0.04136
1388.68816,0.04107
1387.72379,0.04093
1386.75943,0.04105
1385.79506,0.04150
1384.83069,0.04226
1383.86633,0.04333
1382.90196,0.04475
1381.93759,0.04652
1380.97323,0.04853
1380.00886,0.05050
1379.04449,0.05204
1378.08013,0.05274
1377.11576,0.05244
1376.15139,0.05136
1375.18703,0.04990
1374.22266,0.04847
1373.25829,0.04737
1372.29393,0.04667
1371.32956,0.04623
1370.36519,0.04593
1369.40082,0.04569
1368.43646,0.04546
1367.47209,0.04523
1366.50772,0.04503
1365.54336,0.04484
1364.57899,0.04470
1363.61462,0.04456
1362.65026,0.04441
1361.68589,0.04425
1360.72152,0.04409
1359.75716,0.04397
1358.79279,0.04387
1357.82842,0.04379
1356.86406,0.04373
1355.89969,0.04371
1354.93532,0.04372
1353.97096,0.04372
1353.00659,0.04373
1352.04222,0.04372
1351.07786,0.04369
1350.11349,0.04361
1349.14912,0.04345
1348.18476,0.04318
1347.22039,0.04281
1346.25602,0.04236
1345.29166,0.04194
1344.32729,0.04162
1343.36292,0.04144
1342.39856,0.04133
1341.43419,0.04125
1340.46982,0.04117
1339.50545,0.04102
1338.54109,0.04073
1337.57672,0.04028
1336.61235,0.03974
1335.64799,0.03925
1334.68362,0.03888
1333.71925,0.03869
1332.75489,0.03866
1331.79052,0.03874
1330.82615,0.03882
1329.86179,0.03886
1328.89742,0.03884
1327.93305,0.03881
1326.96869,0.03883
1326.00432,0.03895
1325.03995,0.03918
1324.07559,0.03950
1323.11122,0.03988
1322.14685,0.04027
1321.18249,0.04062
1320.21812,0.04087
1319.25375,0.04102
1318.28939,0.04108
1317.32502,0.04106
1316.36065,0.04104
1315.39629,0.04109
1314.43192,0.04126
1313.46755,0.04155
1312.50318,0.04198
1311.53882,0.04253
1310.57445,0.04310
1309.61008,0.04354
1308.64572,0.04372
1307.68135,0.04361
1306.71698,0.04331
1305.75262,0.04301
1304.78825,0.04284
1303.82388,0.04283
1302.85952,0.04290
1301.89515,0.04302
1300.93078,0.04314
1299.96642,0.04318
1299.00205,0.04313
1298.03768,0.04304
1297.07332,0.04295
1296.10895,0.04289
1295.14458,0.04291
1294.18022,0.04299
1293.21585,0.04314
1292.25148,0.04340
1291.28712,0.04380
1290.32275,0.04435
1289.35838,0.04504
1288.39402,0.04581
1287.42965,0.04650
1286.46528,0.04703
1285.50092,0.04741
1284.53655,0.04775
1283.57218,0.04817
1282.60781,0.04870
1281.64345,0.04933
1280.67908,0.05003
1279.71471,0.05069
1278.75035,0.05114
1277.78598,0.05124
1276.82161,0.05103
1275.85725,0.05065
1274.89288,0.05028
1273.92851,0.05002
1272.96415,0.04996
1271.99978,0.05017
1271.03541,0.05070
1270.07105,0.05158
1269.10668,0.05283
1268.14231,0.05436
1267.17795,0.05590
1266.21358,0.05694
1265.24921,0.05714
1264.28485,0.05665
1263.32048,0.05601
1262.35611,0.05567
1261.39175,0.05570
1260.42738,0.05591
1259.46301,0.05603
1258.49865,0.05592
1257.53428,0.05569
1256.56991,0.05546
1255.60555,0.05528
1254.64118,0.05520
1253.67681,0.05529
1252.71244,0.05558
1251.74808,0.05610
1250.78371,0.05684
1249.81934,0.05775
1248.85498,0.05880
1247.89061,0.06001
1246.92624,0.06137
1245.96188,0.06286
1244.99751,0.06438
1244.03314,0.06567
1243.06878,0.06644
1242.10441,0.06663
1241.14004,0.06651
1240.17568,0.06635
1239.21131,0.06623
1238.24694,0.06599
1237.28258,0.06548
1236.31821,0.06468
1235.35384,0.06370
1234.38948,0.06268
1233.42511,0.06173
1232.46074,0.06094
1231.49638,0.06033
1230.53201,0.05989
1229.56764,0.05962
1228.60328,0.05954
1227.63891,0.05964
1226.67454,0.05989
1225.71017,0.06025
1224.74581,0.06075
1223.78144,0.06151
1222.81707,0.06261
1221.85271,0.06391
1220.88834,0.06491
1219.92397,0.06496
1218.95961,0.06388
1217.99524,0.06222
1217.03087,0.06068
1216.06651,0.05955
1215.10214,0.05876
1214.13777,0.05820
1213.17341,0.05779
1212.20904,0.05751
1211.24467,0.05733
1210.28031,0.05726
1209.31594,0.05727
1208.35157,0.05741
1207.38721,0.05772
1206.42284,0.05826
1205.45847,0.05906
1204.49411,0.06008
1203.52974,0.06125
1202.56537,0.06258
1201.60101,0.06419
1200.63664,0.06626
1199.67227,0.06884
1198.70791,0.07172
1197.74354,0.07425
1196.77917,0.07570
1195.81480,0.07569
1194.85044,0.07461
1193.88607,0.07325
1192.92170,0.07228
1191.95734,0.07192
1190.99297,0.07214
1190.02860,0.07288
1189.06424,0.07408
1188.09987,0.07577
1187.13550,0.07796
1186.17114,0.08063
1185.20677,0.08374
1184.24240,0.08720
1183.27804,0.09091
1182.31367,0.09492
1181.34930,0.09930
1180.38494,0.10404
1179.42057,0.10897
1178.45620,0.11375
1177.49184,0.11798
1176.52747,0.12137
1175.56310,0.12377
1174.59874,0.12506
1173.63437,0.12515
1172.67000,0.12414
1171.70564,0.12243
1170.74127,0.12046
1169.77690,0.11864
1168.81254,0.11717
1167.84817,0.11600
1166.88380,0.11507
1165.91943,0.11436
1164.95507,0.11376
1163.99070,0.11316
1163.02633,0.11251
1162.06197,0.11182
1161.09760,0.11102
1160.13323,0.11007
1159.16887,0.10895
1158.20450,0.10771
1157.24013,0.10640
1156.27577,0.10502
1155.31140,0.10359
1154.34703,0.10210
1153.38267,0.10058
1152.41830,0.09902
1151.45393,0.09747
1150.48957,0.09598
1149.52520,0.09460
1148.56083,0.09332
1147.59647,0.09213
1146.63210,0.09099
1145.66773,0.08986
1144.70337,0.08868
1143.73900,0.08734
1142.77463,0.08575
1141.81027,0.08390
1140.84590,0.08173
1139.88153,0.07927
1138.91716,0.07660
1137.95280,0.07375
1136.98843,0.07079
1136.02406,0.06786
1135.05970,0.06508
1134.09533,0.06251
1133.13096,0.06022
1132.16660,0.05825
1131.20223,0.05667
1130.23786,0.05558
1129.27350,0.05500
1128.30913,0.05489
1127.34476,0.05510
1126.38040,0.05557
1125.41603,0.05632
1124.45166,0.05736
1123.48730,0.05856
1122.52293,0.05978
1121.55856,0.06094
1120.59420,0.06202
1119.62983,0.06298
1118.66546,0.06370
1117.70110,0.06415
1116.73673,0.06426
1115.77236,0.06404
1114.80800,0.06365
1113.84363,0.06319
1112.87926,0.06273
1111.91490,0.06237
1110.95053,0.06222
1109.98616,0.06237
1109.02179,0.06285
1108.05743,0.06365
1107.09306,0.06463
1106.12869,0.06558
1105.16433,0.06636
1104.19996,0.06696
1103.23559,0.06740
1102.27123,0.06768
1101.30686,0.06789
1100.34249,0.06815
1099.37813,0.06852
1098.41376,0.06896
1097.44939,0.06922
1096.48503,0.06901
1095.52066,0.06810
1094.55629,0.06659
1093.59193,0.06483
1092.62756,0.06308
1091.66319,0.06136
1090.69883,0.05966
1089.73446,0.05798
1088.77009,0.05634
1087.80573,0.05475
1086.84136,0.05330
1085.87699,0.05205
1084.91263,0.05091
1083.94826,0.04983
1082.98389,0.04878
1082.01953,0.04774
1081.05516,0.04674
1080.09079,0.04581
1079.12642,0.04497
1078.16206,0.04420
1077.19769,0.04353
1076.23332,0.04301
1075.26896,0.04259
1074.30459,0.04221
1073.34022,0.04184
1072.37586,0.04149
1071.41149,0.04117
1070.44712,0.04090
1069.48276,0.04066
1068.51839,0.04047
1067.55402,0.04032
1066.58966,0.04026
1065.62529,0.04026
1064.66092,0.04029
1063.69656,0.04038
1062.73219,0.04048
1061.76782,0.04053
1060.80346,0.04050
1059.83909,0.04036
1058.87472,0.04011
1057.91036,0.03989
1056.94599,0.03972
1055.98162,0.03954
1055.01726,0.03933
1054.05289,0.03904
1053.08852,0.03866
1052.12415,0.03820
1051.15979,0.03772
1050.19542,0.03719
1049.23105,0.03666
1048.26669,0.03622
1047.30232,0.03593
1046.33795,0.03570
1045.37359,0.03551
1044.40922,0.03536
1043.44485,0.03533
1042.48049,0.03542
1041.51612,0.03557
1040.55175,0.03567
1039.58739,0.03579
1038.62302,0.03599
1037.65865,0.03622
1036.69429,0.03634
1035.72992,0.03634
1034.76555,0.03624
1033.80119,0.03614
1032.83682,0.03602
1031.87245,0.03585
1030.90809,0.03566
1029.94372,0.03551
1028.97935,0.03539
1028.01499,0.03527
1027.05062,0.03517
1026.08625,0.03511
1025.12189,0.03508
1024.15752,0.03502
1023.19315,0.03491
1022.22878,0.03478
1021.26442,0.03469
1020.30005,0.03461
1019.33568,0.03455
1018.37132,0.03453
1017.40695,0.03450
1016.44258,0.03443
1015.47822,0.03433
1014.51385,0.03425
1013.54948,0.03421
1012.58512,0.03417
1011.62075,0.03409
1010.65638,0.03397
1009.69202,0.03384
1008.72765,0.03374
1007.76328,0.03371
1006.79892,0.03375
1005.83455,0.03379
1004.87018,0.03380
1003.90582,0.03381
1002.94145,0.03382
1001.97708,0.03379
1001.01272,0.03372
1000.04835,0.03361
999.08398,0.03348
998.11962,0.03336
997.15525,0.03327
996.19088,0.03319
995.22651,0.03314
994.26215,0.03313
993.29778,0.03314
992.33341,0.03314
991.36905,0.03316
990.40468,0.03321
989.44031,0.03325
988.47595,0.03326
987.51158,0.03330
986.54721,0.03340
985.58285,0.03355
984.61848,0.03369
983.65411,0.03380
982.68975,0.03394
981.72538,0.03409
980.76101,0.03422
979.79665,0.03430
978.83228,0.03438
977.86791,0.03444
976.90355,0.03454
975.93918,0.03469
974.97481,0.03487
974.01045,0.03511
973.04608,0.03542
972.08171,0.03574
971.11735,0.03596
970.15298,0.03602
969.18861,0.03594
968.22425,0.03579
967.25988,0.03564
966.29551,0.03554
965.33114,0.03552
964.36678,0.03564
963.40241,0.03586
962.43804,0.03608
961.47368,0.03621
960.50931,0.03623
959.54494,0.03617
958.58058,0.03605
957.61621,0.03589
956.65184,0.03571
955.68748,0.03550
954.72311,0.03529
953.75874,0.03514
952.79438,0.03508
951.83001,0.03508
950.86564,0.03510
949.90128,0.03518
948.93691,0.03535
947.97254,0.03558
947.00818,0.03585
946.04381,0.03610
945.07944,0.03626
944.11508,0.03626
943.15071,0.03619
942.18634,0.03611
941.22198,0.03599
940.25761,0.03586
939.29324,0.03576
938.32888,0.03565
937.36451,0.03557
936.40014,0.03554
935.43577,0.03556
934.47141,0.03563
933.50704,0.03572
932.54267,0.03579
931.57831,0.03587
930.61394,0.03598
929.64957,0.03609
928.68521,0.03621
927.72084,0.03636
926.75647,0.03658
925.79211,0.03688
924.82774,0.03722
923.86337,0.03760
922.89901,0.03800
921.93464,0.03831
920.97027,0.03847
920.00591,0.03857
919.04154,0.03870
918.07717,0.03886
917.11281,0.03903
916.14844,0.03919
915.18407,0.03934
914.21971,0.03949
913.25534,0.03963
912.29097,0.03979
911.32661,0.03996
910.36224,0.04013
909.39787,0.04030
908.43350,0.04046
907.46914,0.04064
906.50477,0.04086
905.54040,0.04109
904.57604,0.04129
903.61167,0.04148
902.64730,0.04167
901.68294,0.04186
900.71857,0.04207
899.75420,0.04236
898.78984,0.04269
897.82547,0.04298
896.86110,0.04326
895.89674,0.04354
894.93237,0.04384
893.96800,0.04419
893.00364,0.04455
892.03927,0.04487
891.07490,0.04520
890.11054,0.04556
889.14617,0.04590
888.18180,0.04617
887.21744,0.04637
886.25307,0.04659
885.28870,0.04681
884.32434,0.04700
883.35997,0.04722
882.39560,0.04750
881.43124,0.04781
880.46687,0.04816
879.50250,0.04854
878.53813,0.04892
877.57377,0.04930
876.60940,0.04965
875.64503,0.04995
874.68067,0.05025
873.71630,0.05062
872.75193,0.05101
871.78757,0.05137
870.82320,0.05169
869.85883,0.05196
868.89447,0.05227
867.93010,0.05266
866.96573,0.05309
866.00137,0.05345
865.03700,0.05375
864.07263,0.05406
863.10827,0.05434
862.14390,0.05456
861.17953,0.05476
860.21517,0.05502
859.25080,0.05535
858.28643,0.05576
857.32207,0.05619
856.35770,0.05659
855.39333,0.05697
854.42897,0.05739
853.46460,0.05784
852.50023,0.05829
851.53587,0.05875
850.57150,0.05921
849.60713,0.05961
848.64276,0.05997
847.67840,0.06026
846.71403,0.06046
845.74966,0.06065
844.78530,0.06098
843.82093,0.06140
842.85656,0.06181
841.89220,0.06225
840.92783,0.06274
839.96346,0.06322
838.99910,0.06364
838.03473,0.06398
837.07036,0.06432
836.10600,0.06464
835.14163,0.06486
834.17726,0.06501
833.21290,0.06519
832.24853,0.06542
831.28416,0.06570
830.31980,0.06599
829.35543,0.06626
828.39106,0.06650
827.42670,0.06678
826.46233,0.06709
825.49796,0.06738
824.53360,0.06770
823.56923,0.06806
822.60486,0.06838
821.64049,0.06866
820.67613,0.06896
819.71176,0.06928
818.74739,0.06960
817.78303,0.06995
816.81866,0.07033
815.85429,0.07068
814.88993,0.07098
813.92556,0.07130
812.96119,0.07168
811.99683,0.07210
811.03246,0.07253
810.06809,0.07288
809.10373,0.07318
808.13936,0.07353
807.17499,0.07388
806.21063,0.07413
805.24626,0.07432
804.28189,0.07459
803.31753,0.07500
802.35316,0.07543
801.38879,0.07579
800.42443,0.07616
799.46006,0.07654
798.49569,0.07687
797.53133,0.07717
796.56696,0.07755
795.60259,0.07794
794.63823,0.07828
793.67386,0.07861
792.70949,0.07892
791.74512,0.07922
790.78076,0.07958
789.81639,0.08003
788.85202,0.08050
787.88766,0.08091
786.92329,0.08130
785.95892,0.08175
784.99456,0.08225
784.03019,0.08278
783.06582,0.08332
782.10146,0.08386
781.13709,0.08432
780.17272,0.08465
779.20836,0.08492
778.24399,0.08526
777.27962,0.08567
776.31526,0.08606
775.35089,0.08641
774.38652,0.08678
773.42216,0.08720
772.45779,0.08759
771.49342,0.08799
770.52906,0.08845
769.56469,0.08892
768.60032,0.08937
767.63596,0.08980
766.67159,0.09020
765.70722,0.09055
764.74286,0.09093
763.77849,0.09137
762.81412,0.09182
761.84975,0.09224
760.88539,0.09263
759.92102,0.09301
758.95665,0.09336
757.99229,0.09373
757.02792,0.09412
756.06355,0.09447
755.09919,0.09480
754.13482,0.09519
753.17045,0.09568
752.20609,0.09616
751.24172,0.09659
750.27735,0.09704
749.31299,0.09758
748.34862,0.09817
747.38425,0.09876
746.41989,0.09931
745.45552,0.09988
744.49115,0.10052
743.52679,0.10120
742.56242,0.10188
741.59805,0.10264
740.63369,0.10343
739.66932,0.10414
738.70495,0.10475
737.74059,0.10533
736.77622,0.10602
735.81185,0.10684
734.84748,0.10771
733.88312,0.10860
732.91875,0.10961
731.95438,0.11078
730.99002,0.11201
730.02565,0.11331
729.06128,0.11477
728.09692,0.11635
727.13255,0.11790
726.16818,0.11933
725.20382,0.12070
724.23945,0.12204
723.27508,0.12333
722.31072,0.12455
721.34635,0.12551
720.38198,0.12607
719.41762,0.12616
718.45325,0.12547
717.48888,0.12429
716.52452,0.12320
715.56015,0.12239
714.59578,0.12176
713.63142,0.12123
712.66705,0.12078
711.70268,0.12045
710.73832,0.12024
709.77395,0.12010
708.80958,0.11994
707.84522,0.11974
706.88085,0.11958
705.91648,0.11954
704.95211,0.11960
703.98775,0.11965
703.02338,0.11962
702.05901,0.11959
701.09465,0.11965
700.13028,0.11979
699.16591,0.11992
698.20155,0.12004
697.23718,0.12019
696.27281,0.12038
695.30845,0.12053
694.34408,0.12061
693.37971,0.12070
692.41535,0.12084
691.45098,0.12098
690.48661,0.12109
689.52225,0.12117
688.55788,0.12123
687.59351,0.12127
686.62915,0.12138
685.66478,0.12154
684.70041,0.12160
683.73605,0.12151
682.77168,0.12140
681.80731,0.12140
680.84295,0.12148
679.87858,0.12158
678.91421,0.12171
677.94984,0.12183
676.98548,0.12186
676.02111,0.12179
675.05674,0.12164
674.09238,0.12146
673.12801,0.12136
672.16364,0.12164
671.19928,0.12248
670.23491,0.12322
669.27054,0.12209
668.30618,0.11962
667.34181,0.12039
666.37744,0.12257
665.41308,0.12267
664.44871,0.12174
663.48434,0.12122
662.51998,0.12118
661.55561,0.12127
660.59124,0.12127
659.62688,0.12114
658.66251,0.12092
657.69814,0.12064
656.73378,0.12034
655.76941,0.12012
654.80504,0.12007
653.84068,0.12012
652.87631,0.12009
651.91194,0.12001
650.94758,0.11997
649.98321,0.11994
649.01884,0.11986
648.05447,0.11975
647.09011,0.11955
646.12574,0.11927
645.16137,0.11899
644.19701,0.11873
643.23264,0.11850
642.26827,0.11833
641.30391,0.11825
640.33954,0.11818
639.37517,0.11804
638.41081,0.11789
637.44644,0.11787
636.48207,0.11794
635.51771,0.11792
634.55334,0.11773
633.58897,0.11747
632.62461,0.11730
631.66024,0.11732
630.69587,0.11745
629.73151,0.11755
628.76714,0.11747
627.80277,0.11726
626.83841,0.11700
625.87404,0.11681
624.90967,0.11656
623.94531,0.11594
622.98094,0.11520
622.01657,0.11486
621.05221,0.11496
620.08784,0.11501
619.12347,0.11476
618.15910,0.11471
617.19474,0.11495
616.23037,0.11496
615.26600,0.11471
614.30164,0.11444
613.33727,0.11447
612.37290,0.11470
611.40854,0.11476
610.44417,0.11500
609.47980,0.11574
608.51544,0.11669
607.55107,0.11739
606.58670,0.11768
605.62234,0.11764
604.65797,0.11739
603.69360,0.11723
602.72924,0.11716
601.76487,0.11718
600.80050,0.11737
599.83614,0.11744
